'sample interval','MLII','V1'
'0.00277778 sec','mV','mV'
0,-0.875,-0.650
1,-0.875,-0.650
2,-0.875,-0.650
3,-0.875,-0.650
4,-0.875,-0.650
5,-0.875,-0.650
6,-0.875,-0.650
7,-0.860,-0.650
8,-0.850,-0.650
9,-0.840,-0.665
10,-0.840,-0.665
11,-0.825,-0.660
12,-0.830,-0.675
13,-0.835,-0.680
14,-0.845,-0.685
15,-0.855,-0.680
16,-0.850,-0.680
17,-0.855,-0.675
18,-0.850,-0.670
19,-0.835,-0.660
20,-0.825,-0.650
21,-0.825,-0.650
22,-0.840,-0.650
23,-0.840,-0.670
24,-0.825,-0.675
25,-0.825,-0.680
26,-0.830,-0.705
27,-0.825,-0.695
28,-0.835,-0.695
29,-0.830,-0.675
30,-0.835,-0.665
31,-0.830,-0.655
32,-0.820,-0.650
33,-0.805,-0.660
34,-0.805,-0.670
35,-0.805,-0.670
36,-0.810,-0.685
37,-0.815,-0.685
38,-0.820,-0.695
39,-0.830,-0.700
40,-0.830,-0.685
41,-0.825,-0.685
42,-0.840,-0.670
43,-0.825,-0.665
44,-0.800,-0.655
45,-0.795,-0.660
46,-0.795,-0.665
47,-0.800,-0.675
48,-0.805,-0.675
49,-0.805,-0.680
50,-0.805,-0.680
51,-0.810,-0.690
52,-0.810,-0.675
53,-0.815,-0.675
54,-0.815,-0.670
55,-0.805,-0.665
56,-0.800,-0.660
57,-0.790,-0.660
58,-0.800,-0.665
59,-0.800,-0.680
60,-0.805,-0.685
61,-0.820,-0.680
62,-0.825,-0.690
63,-0.825,-0.695
64,-0.820,-0.685
65,-0.815,-0.680
66,-0.805,-0.665
67,-0.800,-0.660
68,-0.795,-0.675
69,-0.800,-0.665
70,-0.785,-0.680
71,-0.800,-0.670
72,-0.795,-0.685
73,-0.800,-0.690
74,-0.810,-0.695
75,-0.810,-0.695
76,-0.810,-0.685
77,-0.815,-0.685
78,-0.815,-0.665
79,-0.800,-0.670
80,-0.785,-0.655
81,-0.790,-0.665
82,-0.780,-0.670
83,-0.795,-0.670
84,-0.795,-0.680
85,-0.795,-0.690
86,-0.800,-0.700
87,-0.805,-0.695
88,-0.815,-0.695
89,-0.805,-0.690
90,-0.800,-0.670
91,-0.790,-0.675
92,-0.795,-0.670
93,-0.790,-0.660
94,-0.785,-0.670
95,-0.780,-0.665
96,-0.770,-0.670
97,-0.775,-0.675
98,-0.785,-0.665
99,-0.795,-0.670
100,-0.795,-0.660
101,-0.775,-0.665
102,-0.775,-0.655
103,-0.755,-0.665
104,-0.750,-0.660
105,-0.740,-0.680
106,-0.740,-0.700
107,-0.740,-0.715
108,-0.745,-0.755
109,-0.750,-0.775
110,-0.740,-0.790
111,-0.745,-0.795
112,-0.750,-0.775
113,-0.745,-0.760
114,-0.745,-0.745
115,-0.735,-0.730
116,-0.730,-0.725
117,-0.720,-0.725
118,-0.730,-0.740
119,-0.720,-0.740
120,-0.730,-0.740
121,-0.715,-0.745
122,-0.720,-0.740
123,-0.740,-0.725
124,-0.755,-0.710
125,-0.735,-0.690
126,-0.735,-0.675
127,-0.735,-0.670
128,-0.735,-0.655
129,-0.730,-0.660
130,-0.735,-0.670
131,-0.750,-0.670
132,-0.755,-0.690
133,-0.770,-0.680
134,-0.780,-0.685
135,-0.795,-0.700
136,-0.800,-0.695
137,-0.800,-0.685
138,-0.790,-0.685
139,-0.770,-0.670
140,-0.775,-0.665
141,-0.770,-0.670
142,-0.765,-0.665
143,-0.755,-0.660
144,-0.765,-0.660
145,-0.765,-0.650
146,-0.775,-0.640
147,-0.750,-0.655
148,-0.745,-0.670
149,-0.720,-0.725
150,-0.705,-0.810
151,-0.655,-0.935
152,-0.590,-1.105
153,-0.505,-1.285
154,-0.400,-1.500
155,-0.290,-1.680
156,-0.165,-1.810
157,-0.050,-1.875
158,0.045,-1.855
159,0.115,-1.745
160,0.155,-1.595
161,0.195,-1.425
162,0.210,-1.255
163,0.265,-1.150
164,0.285,-1.035
165,0.295,-0.950
166,0.245,-0.885
167,0.180,-0.820
168,0.105,-0.760
169,0.015,-0.715
170,-0.080,-0.695
171,-0.180,-0.675
172,-0.280,-0.670
173,-0.370,-0.660
174,-0.445,-0.640
175,-0.515,-0.630
176,-0.545,-0.625
177,-0.590,-0.625
178,-0.650,-0.620
179,-0.665,-0.605
180,-0.685,-0.620
181,-0.715,-0.630
182,-0.725,-0.630
183,-0.715,-0.640
184,-0.720,-0.625
185,-0.720,-0.615
186,-0.710,-0.610
187,-0.715,-0.600
188,-0.695,-0.590
189,-0.690,-0.590
190,-0.690,-0.605
191,-0.690,-0.605
192,-0.680,-0.605
193,-0.685,-0.610
194,-0.695,-0.620
195,-0.705,-0.620
196,-0.700,-0.615
197,-0.700,-0.600
198,-0.695,-0.610
199,-0.685,-0.595
200,-0.680,-0.590
201,-0.665,-0.585
202,-0.665,-0.585
203,-0.660,-0.600
204,-0.665,-0.605
205,-0.665,-0.605
206,-0.670,-0.625
207,-0.670,-0.620
208,-0.670,-0.615
209,-0.680,-0.605
210,-0.655,-0.595
211,-0.655,-0.605
212,-0.655,-0.580
213,-0.640,-0.580
214,-0.645,-0.595
215,-0.640,-0.605
216,-0.640,-0.610
217,-0.655,-0.620
218,-0.655,-0.615
219,-0.670,-0.625
220,-0.680,-0.620
221,-0.670,-0.620
222,-0.675,-0.605
223,-0.655,-0.605
224,-0.665,-0.595
225,-0.650,-0.595
226,-0.640,-0.600
227,-0.635,-0.600
228,-0.640,-0.605
229,-0.650,-0.620
230,-0.655,-0.615
231,-0.640,-0.625
232,-0.650,-0.625
233,-0.655,-0.615
234,-0.640,-0.610
235,-0.635,-0.600
236,-0.625,-0.600
237,-0.615,-0.605
238,-0.620,-0.610
239,-0.620,-0.600
240,-0.615,-0.615
241,-0.625,-0.620
242,-0.625,-0.630
243,-0.625,-0.625
244,-0.630,-0.620
245,-0.630,-0.630
246,-0.610,-0.610
247,-0.595,-0.610
248,-0.585,-0.595
249,-0.575,-0.595
250,-0.580,-0.595
251,-0.570,-0.600
252,-0.580,-0.620
253,-0.570,-0.625
254,-0.580,-0.640
255,-0.580,-0.635
256,-0.585,-0.640
257,-0.590,-0.620
258,-0.580,-0.620
259,-0.580,-0.620
260,-0.570,-0.625
261,-0.565,-0.620
262,-0.575,-0.620
263,-0.575,-0.625
264,-0.575,-0.635
265,-0.590,-0.635
266,-0.600,-0.650
267,-0.615,-0.660
268,-0.615,-0.650
269,-0.605,-0.655
270,-0.625,-0.645
271,-0.605,-0.630
272,-0.615,-0.630
273,-0.615,-0.620
274,-0.620,-0.635
275,-0.630,-0.645
276,-0.640,-0.645
277,-0.645,-0.655
278,-0.670,-0.660
279,-0.685,-0.675
280,-0.690,-0.660
281,-0.695,-0.665
282,-0.710,-0.650
283,-0.715,-0.645
284,-0.725,-0.640
285,-0.735,-0.640
286,-0.725,-0.640
287,-0.745,-0.640
288,-0.755,-0.660
289,-0.755,-0.660
290,-0.760,-0.675
291,-0.775,-0.675
292,-0.785,-0.675
293,-0.780,-0.675
294,-0.780,-0.665
295,-0.765,-0.660
296,-0.765,-0.650
297,-0.755,-0.645
298,-0.760,-0.645
299,-0.755,-0.650
300,-0.770,-0.660
301,-0.775,-0.670
302,-0.790,-0.675
303,-0.790,-0.675
304,-0.790,-0.670
305,-0.790,-0.660
306,-0.780,-0.650
307,-0.775,-0.650
308,-0.780,-0.645
309,-0.765,-0.640
310,-0.765,-0.645
311,-0.765,-0.655
312,-0.770,-0.670
313,-0.795,-0.660
314,-0.790,-0.665
315,-0.795,-0.670
316,-0.800,-0.670
317,-0.800,-0.655
318,-0.795,-0.645
319,-0.790,-0.645
320,-0.795,-0.640
321,-0.790,-0.625
322,-0.800,-0.640
323,-0.800,-0.650
324,-0.805,-0.660
325,-0.805,-0.665
326,-0.820,-0.660
327,-0.825,-0.675
328,-0.840,-0.670
329,-0.835,-0.665
330,-0.830,-0.660
331,-0.825,-0.650
332,-0.825,-0.635
333,-0.820,-0.630
334,-0.825,-0.645
335,-0.830,-0.655
336,-0.830,-0.665
337,-0.835,-0.655
338,-0.840,-0.670
339,-0.850,-0.680
340,-0.855,-0.670
341,-0.855,-0.675
342,-0.845,-0.660
343,-0.845,-0.655
344,-0.850,-0.660
345,-0.830,-0.650
346,-0.830,-0.655
347,-0.840,-0.665
348,-0.835,-0.670
349,-0.850,-0.675
350,-0.860,-0.695
351,-0.855,-0.685
352,-0.865,-0.690
353,-0.870,-0.675
354,-0.855,-0.680
355,-0.855,-0.665
356,-0.845,-0.660
357,-0.850,-0.660
358,-0.855,-0.670
359,-0.850,-0.675
360,-0.860,-0.675
361,-0.840,-0.680
362,-0.860,-0.690
363,-0.865,-0.700
364,-0.865,-0.695
365,-0.870,-0.685
366,-0.855,-0.675
367,-0.840,-0.665
368,-0.840,-0.670
369,-0.835,-0.660
370,-0.840,-0.665
371,-0.840,-0.680
372,-0.840,-0.690
373,-0.835,-0.685
374,-0.855,-0.690
375,-0.860,-0.695
376,-0.850,-0.700
377,-0.855,-0.690
378,-0.840,-0.685
379,-0.835,-0.670
380,-0.830,-0.670
381,-0.820,-0.665
382,-0.825,-0.670
383,-0.830,-0.675
384,-0.835,-0.685
385,-0.835,-0.700
386,-0.830,-0.700
387,-0.850,-0.695
388,-0.865,-0.705
389,-0.850,-0.700
390,-0.840,-0.685
391,-0.835,-0.695
392,-0.820,-0.675
393,-0.815,-0.680
394,-0.815,-0.690
395,-0.805,-0.685
396,-0.820,-0.695
397,-0.825,-0.705
398,-0.825,-0.710
399,-0.830,-0.710
400,-0.830,-0.705
401,-0.825,-0.705
402,-0.825,-0.685
403,-0.820,-0.675
404,-0.820,-0.680
405,-0.815,-0.670
406,-0.805,-0.675
407,-0.805,-0.680
408,-0.815,-0.695
409,-0.825,-0.705
410,-0.835,-0.705
411,-0.840,-0.705
412,-0.840,-0.715
413,-0.835,-0.700
414,-0.835,-0.685
415,-0.830,-0.680
416,-0.825,-0.680
417,-0.815,-0.680
418,-0.810,-0.675
419,-0.805,-0.690
420,-0.820,-0.690
421,-0.825,-0.695
422,-0.830,-0.715
423,-0.825,-0.705
424,-0.830,-0.715
425,-0.825,-0.705
426,-0.825,-0.690
427,-0.815,-0.690
428,-0.815,-0.680
429,-0.790,-0.675
430,-0.800,-0.680
431,-0.810,-0.680
432,-0.815,-0.685
433,-0.805,-0.695
434,-0.820,-0.705
435,-0.815,-0.710
436,-0.825,-0.705
437,-0.825,-0.700
438,-0.825,-0.700
439,-0.815,-0.675
440,-0.800,-0.675
441,-0.800,-0.675
442,-0.810,-0.685
443,-0.805,-0.695
444,-0.810,-0.690
445,-0.820,-0.695
446,-0.815,-0.695
447,-0.810,-0.700
448,-0.800,-0.685
449,-0.795,-0.680
450,-0.790,-0.670
451,-0.770,-0.670
452,-0.760,-0.685
453,-0.745,-0.685
454,-0.745,-0.700
455,-0.750,-0.720
456,-0.755,-0.750
457,-0.770,-0.770
458,-0.780,-0.775
459,-0.785,-0.800
460,-0.775,-0.800
461,-0.760,-0.785
462,-0.760,-0.770
463,-0.755,-0.750
464,-0.740,-0.740
465,-0.735,-0.745
466,-0.745,-0.745
467,-0.750,-0.755
468,-0.750,-0.760
469,-0.755,-0.760
470,-0.760,-0.760
471,-0.755,-0.765
472,-0.750,-0.745
473,-0.765,-0.730
474,-0.765,-0.705
475,-0.760,-0.690
476,-0.760,-0.675
477,-0.760,-0.665
478,-0.775,-0.680
479,-0.780,-0.680
480,-0.785,-0.705
481,-0.800,-0.720
482,-0.805,-0.715
483,-0.815,-0.715
484,-0.810,-0.725
485,-0.820,-0.715
486,-0.810,-0.695
487,-0.800,-0.695
488,-0.805,-0.690
489,-0.785,-0.695
490,-0.790,-0.700
491,-0.785,-0.690
492,-0.800,-0.685
493,-0.800,-0.695
494,-0.800,-0.685
495,-0.800,-0.670
496,-0.805,-0.675
497,-0.790,-0.665
498,-0.780,-0.680
499,-0.760,-0.710
500,-0.730,-0.770
501,-0.700,-0.890
502,-0.655,-1.055
503,-0.605,-1.250
504,-0.495,-1.470
505,-0.380,-1.695
506,-0.260,-1.855
507,-0.155,-1.955
508,-0.060,-1.930
509,0.015,-1.815
510,0.055,-1.645
511,0.095,-1.450
512,0.140,-1.270
513,0.180,-1.125
514,0.200,-1.020
515,0.180,-0.935
516,0.135,-0.865
517,0.070,-0.810
518,-0.010,-0.750
519,-0.105,-0.725
520,-0.225,-0.705
521,-0.315,-0.690
522,-0.405,-0.665
523,-0.500,-0.660
524,-0.560,-0.655
525,-0.615,-0.635
526,-0.640,-0.625
527,-0.685,-0.635
528,-0.720,-0.625
529,-0.745,-0.640
530,-0.760,-0.640
531,-0.770,-0.640
532,-0.780,-0.645
533,-0.780,-0.635
534,-0.770,-0.610
535,-0.760,-0.615
536,-0.750,-0.600
537,-0.735,-0.605
538,-0.725,-0.605
539,-0.735,-0.610
540,-0.745,-0.620
541,-0.750,-0.620
542,-0.750,-0.625
543,-0.755,-0.620
544,-0.750,-0.625
545,-0.750,-0.615
546,-0.760,-0.610
547,-0.740,-0.605
548,-0.740,-0.590
549,-0.720,-0.585
550,-0.710,-0.600
551,-0.710,-0.600
552,-0.725,-0.605
553,-0.725,-0.615
554,-0.730,-0.620
555,-0.725,-0.625
556,-0.745,-0.625
557,-0.725,-0.625
558,-0.745,-0.605
559,-0.720,-0.600
560,-0.715,-0.590
561,-0.700,-0.580
562,-0.695,-0.580
563,-0.695,-0.590
564,-0.705,-0.605
565,-0.715,-0.600
566,-0.715,-0.620
567,-0.710,-0.625
568,-0.720,-0.620
569,-0.720,-0.625
570,-0.715,-0.610
571,-0.715,-0.600
572,-0.700,-0.595
573,-0.680,-0.590
574,-0.690,-0.600
575,-0.695,-0.605
576,-0.680,-0.600
577,-0.685,-0.615
578,-0.700,-0.610
579,-0.705,-0.625
580,-0.695,-0.620
581,-0.690,-0.615
582,-0.685,-0.600
583,-0.680,-0.590
584,-0.675,-0.580
585,-0.650,-0.585
586,-0.655,-0.595
587,-0.655,-0.590
588,-0.675,-0.595
589,-0.660,-0.615
590,-0.660,-0.620
591,-0.660,-0.625
592,-0.655,-0.630
593,-0.665,-0.610
594,-0.660,-0.600
595,-0.645,-0.595
596,-0.635,-0.590
597,-0.635,-0.590
598,-0.635,-0.585
599,-0.620,-0.595
600,-0.625,-0.615
601,-0.625,-0.620
602,-0.635,-0.615
603,-0.635,-0.640
604,-0.645,-0.630
605,-0.650,-0.630
606,-0.645,-0.615
607,-0.630,-0.615
608,-0.620,-0.610
609,-0.615,-0.610
610,-0.635,-0.610
611,-0.640,-0.625
612,-0.640,-0.630
613,-0.645,-0.650
614,-0.660,-0.650
615,-0.680,-0.660
616,-0.675,-0.650
617,-0.675,-0.660
618,-0.685,-0.645
619,-0.690,-0.650
620,-0.690,-0.640
621,-0.685,-0.655
622,-0.690,-0.650
623,-0.680,-0.650
624,-0.710,-0.670
625,-0.720,-0.665
626,-0.715,-0.670
627,-0.750,-0.690
628,-0.765,-0.690
629,-0.760,-0.675
630,-0.765,-0.680
631,-0.775,-0.680
632,-0.780,-0.660
633,-0.785,-0.655
634,-0.785,-0.660
635,-0.780,-0.665
636,-0.785,-0.680
637,-0.795,-0.685
638,-0.820,-0.685
639,-0.825,-0.695
640,-0.825,-0.690
641,-0.835,-0.675
642,-0.835,-0.675
643,-0.825,-0.675
644,-0.825,-0.665
645,-0.815,-0.660
646,-0.815,-0.670
647,-0.815,-0.660
648,-0.810,-0.675
649,-0.840,-0.680
650,-0.850,-0.685
651,-0.845,-0.685
652,-0.850,-0.680
653,-0.855,-0.680
654,-0.850,-0.665
655,-0.845,-0.665
656,-0.845,-0.650
657,-0.825,-0.650
658,-0.825,-0.650
659,-0.820,-0.655
660,-0.820,-0.660
661,-0.845,-0.660
662,-0.850,-0.660
663,-0.850,-0.665
664,-0.870,-0.655
665,-0.870,-0.645
666,-0.865,-0.625
667,-0.860,-0.620
668,-0.860,-0.610
669,-0.840,-0.625
670,-0.845,-0.635
671,-0.845,-0.660
672,-0.850,-0.660
673,-0.855,-0.680
674,-0.865,-0.655
675,-0.870,-0.660
676,-0.875,-0.655
677,-0.875,-0.655
678,-0.880,-0.660
679,-0.875,-0.640
680,-0.870,-0.640
681,-0.860,-0.635
682,-0.860,-0.635
683,-0.870,-0.620
684,-0.860,-0.640
685,-0.875,-0.630
686,-0.885,-0.630
687,-0.890,-0.645
688,-0.895,-0.650
689,-0.900,-0.650
690,-0.890,-0.645
691,-0.895,-0.635
692,-0.885,-0.620
693,-0.875,-0.605
694,-0.885,-0.605
695,-0.875,-0.620
696,-0.885,-0.645
697,-0.895,-0.665
698,-0.895,-0.685
699,-0.900,-0.700
700,-0.905,-0.700
701,-0.900,-0.700
702,-0.895,-0.670
703,-0.895,-0.655
704,-0.875,-0.645
705,-0.875,-0.630
706,-0.875,-0.625
707,-0.865,-0.620
708,-0.870,-0.615
709,-0.870,-0.610
710,-0.880,-0.625
711,-0.890,-0.640
712,-0.895,-0.675
713,-0.890,-0.690
714,-0.890,-0.720
715,-0.890,-0.720
716,-0.885,-0.710
717,-0.870,-0.700
718,-0.865,-0.685
719,-0.865,-0.680
720,-0.880,-0.680
721,-0.880,-0.680
722,-0.885,-0.705
723,-0.895,-0.695
724,-0.905,-0.690
725,-0.910,-0.675
726,-0.905,-0.665
727,-0.885,-0.655
728,-0.895,-0.655
729,-0.865,-0.650
730,-0.865,-0.660
731,-0.860,-0.660
732,-0.875,-0.660
733,-0.885,-0.665
734,-0.900,-0.680
735,-0.905,-0.685
736,-0.900,-0.690
737,-0.890,-0.675
738,-0.895,-0.685
739,-0.900,-0.670
740,-0.895,-0.660
741,-0.895,-0.660
742,-0.895,-0.660
743,-0.895,-0.655
744,-0.895,-0.640
745,-0.890,-0.655
746,-0.915,-0.670
747,-0.905,-0.665
748,-0.910,-0.670
749,-0.915,-0.675
750,-0.920,-0.660
751,-0.920,-0.665
752,-0.915,-0.650
753,-0.920,-0.650
754,-0.910,-0.650
755,-0.910,-0.655
756,-0.920,-0.660
757,-0.920,-0.650
758,-0.945,-0.635
759,-0.955,-0.635
760,-0.960,-0.625
761,-0.970,-0.610
762,-0.970,-0.610
763,-0.980,-0.620
764,-0.975,-0.625
765,-0.980,-0.645
766,-0.970,-0.655
767,-0.955,-0.670
768,-0.960,-0.680
769,-0.975,-0.665
770,-0.980,-0.625
771,-0.990,-0.600
772,-0.990,-0.600
773,-1.000,-0.630
774,-0.995,-0.675
775,-0.995,-0.730
776,-0.985,-0.740
777,-0.990,-0.720
778,-0.995,-0.690
779,-1.005,-0.660
780,-1.005,-0.625
781,-1.005,-0.610
782,-1.020,-0.645
783,-1.020,-0.680
784,-1.020,-0.730
785,-1.025,-0.745
786,-1.020,-0.740
787,-1.025,-0.720
788,-1.010,-0.690
789,-1.010,-0.660
790,-1.010,-0.650
791,-0.995,-0.650
792,-1.000,-0.655
793,-1.000,-0.670
794,-1.015,-0.680
795,-1.020,-0.685
796,-1.040,-0.690
797,-1.035,-0.675
798,-1.030,-0.675
799,-1.030,-0.660
800,-1.020,-0.645
801,-1.005,-0.635
802,-1.005,-0.625
803,-1.010,-0.615
804,-1.025,-0.605
805,-1.030,-0.595
806,-1.020,-0.605
807,-1.025,-0.615
808,-1.015,-0.660
809,-1.010,-0.675
810,-1.000,-0.680
811,-0.995,-0.650
812,-0.995,-0.615
813,-0.980,-0.630
814,-0.965,-0.690
815,-0.965,-0.765
816,-0.980,-0.830
817,-0.990,-0.870
818,-0.995,-0.850
819,-1.005,-0.815
820,-1.010,-0.775
821,-0.995,-0.740
822,-0.995,-0.710
823,-0.995,-0.715
824,-0.995,-0.710
825,-0.990,-0.715
826,-0.995,-0.720
827,-0.990,-0.725
828,-0.995,-0.725
829,-1.000,-0.720
830,-0.990,-0.710
831,-1.000,-0.705
832,-1.005,-0.700
833,-1.005,-0.680
834,-1.015,-0.670
835,-1.025,-0.685
836,-1.015,-0.680
837,-1.035,-0.695
838,-1.035,-0.680
839,-1.035,-0.690
840,-1.055,-0.690
841,-1.070,-0.705
842,-1.080,-0.690
843,-1.080,-0.680
844,-1.075,-0.695
845,-1.065,-0.705
846,-1.065,-0.695
847,-1.060,-0.700
848,-1.060,-0.700
849,-1.060,-0.685
850,-1.060,-0.685
851,-1.050,-0.680
852,-1.055,-0.670
853,-1.055,-0.655
854,-1.050,-0.660
855,-1.060,-0.640
856,-1.050,-0.635
857,-1.050,-0.665
858,-1.030,-0.710
859,-1.010,-0.760
860,-0.990,-0.855
861,-0.935,-0.965
862,-0.865,-1.115
863,-0.800,-1.305
864,-0.700,-1.495
865,-0.625,-1.675
866,-0.535,-1.840
867,-0.445,-1.910
868,-0.360,-1.915
869,-0.285,-1.820
870,-0.235,-1.660
871,-0.190,-1.480
872,-0.155,-1.315
873,-0.105,-1.185
874,-0.080,-1.085
875,-0.070,-1.000
876,-0.120,-0.915
877,-0.175,-0.840
878,-0.250,-0.770
879,-0.355,-0.720
880,-0.485,-0.700
881,-0.600,-0.670
882,-0.705,-0.665
883,-0.800,-0.645
884,-0.870,-0.635
885,-0.920,-0.630
886,-0.970,-0.635
887,-0.985,-0.630
888,-1.010,-0.635
889,-1.045,-0.625
890,-1.055,-0.640
891,-1.060,-0.630
892,-1.075,-0.665
893,-1.070,-0.645
894,-1.040,-0.635
895,-1.035,-0.615
896,-1.020,-0.610
897,-1.020,-0.600
898,-1.005,-0.605
899,-1.015,-0.605
900,-1.015,-0.600
901,-1.010,-0.590
902,-1.015,-0.595
903,-1.030,-0.615
904,-1.020,-0.640
905,-1.020,-0.665
906,-1.015,-0.660
907,-1.005,-0.645
908,-0.990,-0.630
909,-0.980,-0.610
910,-0.985,-0.590
911,-0.980,-0.590
912,-0.975,-0.590
913,-0.995,-0.625
914,-0.995,-0.655
915,-0.985,-0.670
916,-0.990,-0.655
917,-0.985,-0.645
918,-0.980,-0.615
919,-0.975,-0.620
920,-0.970,-0.605
921,-0.955,-0.600
922,-0.945,-0.600
923,-0.940,-0.615
924,-0.945,-0.630
925,-0.950,-0.630
926,-0.950,-0.640
927,-0.970,-0.635
928,-0.985,-0.635
929,-0.990,-0.625
930,-0.965,-0.625
931,-0.960,-0.605
932,-0.945,-0.605
933,-0.940,-0.615
934,-0.935,-0.615
935,-0.940,-0.620
936,-0.940,-0.635
937,-0.930,-0.645
938,-0.930,-0.650
939,-0.930,-0.645
940,-0.945,-0.635
941,-0.930,-0.605
942,-0.930,-0.595
943,-0.920,-0.605
944,-0.915,-0.590
945,-0.910,-0.575
946,-0.905,-0.590
947,-0.895,-0.600
948,-0.900,-0.615
949,-0.900,-0.635
950,-0.905,-0.655
951,-0.910,-0.655
952,-0.910,-0.640
953,-0.900,-0.630
954,-0.895,-0.625
955,-0.875,-0.635
956,-0.875,-0.630
957,-0.855,-0.630
958,-0.850,-0.620
959,-0.850,-0.625
960,-0.855,-0.620
961,-0.850,-0.625
962,-0.855,-0.630
963,-0.860,-0.640
964,-0.860,-0.665
965,-0.855,-0.660
966,-0.855,-0.645
967,-0.850,-0.645
968,-0.850,-0.630
969,-0.845,-0.630
970,-0.830,-0.645
971,-0.840,-0.645
972,-0.840,-0.645
973,-0.845,-0.660
974,-0.855,-0.680
975,-0.865,-0.665
976,-0.875,-0.675
977,-0.880,-0.650
978,-0.870,-0.655
979,-0.865,-0.650
980,-0.860,-0.640
981,-0.860,-0.640
982,-0.865,-0.665
983,-0.885,-0.665
984,-0.885,-0.670
985,-0.885,-0.660
986,-0.905,-0.660
987,-0.925,-0.665
988,-0.915,-0.680
989,-0.915,-0.680
990,-0.930,-0.675
991,-0.945,-0.665
992,-0.950,-0.655
993,-0.945,-0.640
994,-0.950,-0.660
995,-0.955,-0.675
996,-0.955,-0.685
997,-0.965,-0.710
998,-0.985,-0.705
999,-1.000,-0.700
1000,-0.990,-0.690
1001,-1.000,-0.655
1002,-0.990,-0.655
1003,-0.985,-0.655
1004,-0.975,-0.650
1005,-0.970,-0.665
1006,-0.980,-0.690
1007,-0.970,-0.705
1008,-0.975,-0.690
1009,-0.985,-0.680
1010,-1.010,-0.675
1011,-1.010,-0.685
1012,-1.000,-0.685
1013,-0.985,-0.685
1014,-0.980,-0.690
1015,-0.970,-0.680
1016,-0.965,-0.660
1017,-0.955,-0.660
1018,-0.965,-0.665
1019,-0.970,-0.680
1020,-0.980,-0.685
1021,-0.990,-0.665
1022,-0.990,-0.680
1023,-0.995,-0.690
1024,-1.005,-0.680
1025,-1.000,-0.675
1026,-0.995,-0.655
1027,-0.990,-0.640
1028,-0.980,-0.630
1029,-0.970,-0.635
1030,-0.975,-0.655
1031,-0.985,-0.650
1032,-1.000,-0.660
1033,-1.010,-0.680
1034,-1.015,-0.670
1035,-1.015,-0.675
1036,-1.015,-0.675
1037,-1.015,-0.660
1038,-1.015,-0.655
1039,-1.010,-0.655
1040,-1.005,-0.640
1041,-1.000,-0.635
1042,-1.000,-0.640
1043,-1.005,-0.650
1044,-1.005,-0.655
1045,-1.010,-0.660
1046,-1.020,-0.670
1047,-1.025,-0.670
1048,-1.030,-0.665
1049,-1.025,-0.670
1050,-1.020,-0.665
1051,-1.010,-0.675
1052,-1.010,-0.665
1053,-1.000,-0.670
1054,-0.995,-0.670
1055,-0.995,-0.675
1056,-1.010,-0.670
1057,-1.010,-0.675
1058,-1.015,-0.680
1059,-1.015,-0.675
1060,-1.015,-0.690
1061,-1.015,-0.670
1062,-1.010,-0.655
1063,-1.000,-0.655
1064,-0.995,-0.650
1065,-1.000,-0.660
1066,-1.000,-0.660
1067,-0.995,-0.665
1068,-1.000,-0.670
1069,-1.005,-0.685
1070,-1.005,-0.685
1071,-1.035,-0.695
1072,-1.025,-0.695
1073,-1.015,-0.680
1074,-1.010,-0.675
1075,-0.995,-0.670
1076,-0.985,-0.665
1077,-0.965,-0.670
1078,-0.975,-0.695
1079,-0.975,-0.690
1080,-0.985,-0.710
1081,-0.985,-0.715
1082,-1.000,-0.705
1083,-1.000,-0.695
1084,-0.985,-0.690
1085,-0.975,-0.685
1086,-0.965,-0.675
1087,-0.975,-0.665
1088,-0.950,-0.665
1089,-0.955,-0.680
1090,-0.950,-0.680
1091,-0.950,-0.680
1092,-0.955,-0.685
1093,-0.955,-0.690
1094,-0.965,-0.705
1095,-0.965,-0.700
1096,-0.975,-0.710
1097,-0.965,-0.685
1098,-0.955,-0.675
1099,-0.945,-0.670
1100,-0.935,-0.675
1101,-0.925,-0.685
1102,-0.950,-0.695
1103,-0.945,-0.680
1104,-0.930,-0.680
1105,-0.935,-0.695
1106,-0.945,-0.695
1107,-0.970,-0.710
1108,-0.960,-0.705
1109,-0.950,-0.705
1110,-0.955,-0.690
1111,-0.950,-0.685
1112,-0.930,-0.690
1113,-0.925,-0.700
1114,-0.925,-0.695
1115,-0.915,-0.695
1116,-0.915,-0.705
1117,-0.930,-0.700
1118,-0.940,-0.690
1119,-0.940,-0.685
1120,-0.945,-0.680
1121,-0.935,-0.690
1122,-0.930,-0.695
1123,-0.925,-0.695
1124,-0.925,-0.690
1125,-0.915,-0.690
1126,-0.915,-0.690
1127,-0.910,-0.690
1128,-0.915,-0.690
1129,-0.925,-0.700
1130,-0.955,-0.705
1131,-0.945,-0.710
1132,-0.945,-0.705
1133,-0.945,-0.700
1134,-0.930,-0.695
1135,-0.915,-0.700
1136,-0.895,-0.700
1137,-0.895,-0.695
1138,-0.895,-0.700
1139,-0.910,-0.695
1140,-0.900,-0.690
1141,-0.915,-0.710
1142,-0.915,-0.710
1143,-0.925,-0.710
1144,-0.920,-0.715
1145,-0.915,-0.700
1146,-0.915,-0.695
1147,-0.895,-0.680
1148,-0.890,-0.675
1149,-0.880,-0.675
1150,-0.885,-0.670
1151,-0.880,-0.660
1152,-0.870,-0.680
1153,-0.875,-0.690
1154,-0.865,-0.700
1155,-0.855,-0.705
1156,-0.850,-0.715
1157,-0.845,-0.720
1158,-0.840,-0.715
1159,-0.845,-0.710
1160,-0.835,-0.715
1161,-0.840,-0.730
1162,-0.825,-0.765
1163,-0.825,-0.780
1164,-0.830,-0.795
1165,-0.820,-0.795
1166,-0.825,-0.790
1167,-0.835,-0.780
1168,-0.835,-0.770
1169,-0.830,-0.750
1170,-0.830,-0.740
1171,-0.815,-0.730
1172,-0.820,-0.720
1173,-0.805,-0.715
1174,-0.810,-0.730
1175,-0.805,-0.730
1176,-0.805,-0.730
1177,-0.820,-0.720
1178,-0.830,-0.725
1179,-0.845,-0.720
1180,-0.855,-0.715
1181,-0.855,-0.715
1182,-0.860,-0.700
1183,-0.860,-0.695
1184,-0.850,-0.685
1185,-0.860,-0.685
1186,-0.860,-0.690
1187,-0.850,-0.685
1188,-0.850,-0.700
1189,-0.855,-0.725
1190,-0.860,-0.725
1191,-0.865,-0.720
1192,-0.895,-0.700
1193,-0.880,-0.690
1194,-0.875,-0.680
1195,-0.865,-0.670
1196,-0.860,-0.665
1197,-0.835,-0.655
1198,-0.820,-0.655
1199,-0.810,-0.655
1200,-0.815,-0.675
1201,-0.820,-0.715
1202,-0.820,-0.770
1203,-0.800,-0.880
1204,-0.750,-0.990
1205,-0.695,-1.145
1206,-0.620,-1.310
1207,-0.535,-1.460
1208,-0.415,-1.615
1209,-0.300,-1.735
1210,-0.190,-1.815
1211,-0.090,-1.840
1212,-0.025,-1.780
1213,0.040,-1.655
1214,0.070,-1.525
1215,0.095,-1.365
1216,0.130,-1.230
1217,0.160,-1.110
1218,0.175,-1.035
1219,0.175,-0.940
1220,0.140,-0.875
1221,0.090,-0.815
1222,0.020,-0.740
1223,-0.055,-0.710
1224,-0.140,-0.690
1225,-0.240,-0.685
1226,-0.330,-0.690
1227,-0.430,-0.670
1228,-0.520,-0.685
1229,-0.590,-0.660
1230,-0.650,-0.640
1231,-0.700,-0.630
1232,-0.730,-0.620
1233,-0.760,-0.615
1234,-0.780,-0.615
1235,-0.800,-0.620
1236,-0.800,-0.620
1237,-0.800,-0.625
1238,-0.805,-0.640
1239,-0.805,-0.640
1240,-0.800,-0.630
1241,-0.790,-0.605
1242,-0.790,-0.600
1243,-0.790,-0.590
1244,-0.790,-0.590
1245,-0.775,-0.585
1246,-0.770,-0.595
1247,-0.770,-0.610
1248,-0.775,-0.625
1249,-0.780,-0.635
1250,-0.790,-0.635
1251,-0.780,-0.635
1252,-0.775,-0.615
1253,-0.765,-0.620
1254,-0.770,-0.615
1255,-0.765,-0.595
1256,-0.765,-0.595
1257,-0.760,-0.585
1258,-0.755,-0.590
1259,-0.765,-0.595
1260,-0.765,-0.610
1261,-0.755,-0.620
1262,-0.765,-0.620
1263,-0.755,-0.635
1264,-0.755,-0.625
1265,-0.750,-0.620
1266,-0.750,-0.605
1267,-0.745,-0.610
1268,-0.740,-0.595
1269,-0.730,-0.590
1270,-0.725,-0.595
1271,-0.725,-0.595
1272,-0.730,-0.610
1273,-0.735,-0.610
1274,-0.745,-0.610
1275,-0.740,-0.620
1276,-0.740,-0.620
1277,-0.730,-0.615
1278,-0.725,-0.605
1279,-0.730,-0.595
1280,-0.715,-0.585
1281,-0.710,-0.590
1282,-0.715,-0.590
1283,-0.710,-0.600
1284,-0.725,-0.605
1285,-0.715,-0.600
1286,-0.715,-0.610
1287,-0.720,-0.615
1288,-0.725,-0.625
1289,-0.715,-0.605
1290,-0.715,-0.620
1291,-0.705,-0.605
1292,-0.700,-0.600
1293,-0.685,-0.595
1294,-0.680,-0.605
1295,-0.680,-0.600
1296,-0.680,-0.605
1297,-0.690,-0.600
1298,-0.685,-0.610
1299,-0.690,-0.610
1300,-0.695,-0.615
1301,-0.695,-0.605
1302,-0.680,-0.590
1303,-0.675,-0.605
1304,-0.665,-0.595
1305,-0.650,-0.595
1306,-0.660,-0.610
1307,-0.650,-0.625
1308,-0.660,-0.620
1309,-0.665,-0.615
1310,-0.660,-0.625
1311,-0.670,-0.630
1312,-0.670,-0.630
1313,-0.670,-0.620
1314,-0.675,-0.615
1315,-0.665,-0.615
1316,-0.665,-0.615
1317,-0.665,-0.615
1318,-0.665,-0.630
1319,-0.665,-0.625
1320,-0.680,-0.645
1321,-0.685,-0.645
1322,-0.700,-0.640
1323,-0.710,-0.645
1324,-0.715,-0.640
1325,-0.720,-0.645
1326,-0.720,-0.650
1327,-0.715,-0.645
1328,-0.720,-0.650
1329,-0.720,-0.655
1330,-0.745,-0.650
1331,-0.750,-0.655
1332,-0.770,-0.660
1333,-0.775,-0.675
1334,-0.800,-0.665
1335,-0.820,-0.680
1336,-0.820,-0.670
1337,-0.810,-0.650
1338,-0.820,-0.640
1339,-0.820,-0.630
1340,-0.820,-0.625
1341,-0.820,-0.625
1342,-0.830,-0.635
1343,-0.825,-0.650
1344,-0.835,-0.655
1345,-0.850,-0.650
1346,-0.850,-0.645
1347,-0.860,-0.660
1348,-0.845,-0.650
1349,-0.835,-0.650
1350,-0.835,-0.640
1351,-0.835,-0.640
1352,-0.830,-0.635
1353,-0.835,-0.640
1354,-0.840,-0.645
1355,-0.835,-0.640
1356,-0.835,-0.650
1357,-0.845,-0.655
1358,-0.835,-0.655
1359,-0.855,-0.650
1360,-0.840,-0.635
1361,-0.835,-0.630
1362,-0.845,-0.625
1363,-0.830,-0.635
1364,-0.855,-0.630
1365,-0.855,-0.645
1366,-0.835,-0.655
1367,-0.845,-0.645
1368,-0.840,-0.665
1369,-0.845,-0.650
1370,-0.850,-0.645
1371,-0.860,-0.645
1372,-0.860,-0.640
1373,-0.870,-0.635
1374,-0.865,-0.620
1375,-0.855,-0.605
1376,-0.845,-0.590
1377,-0.845,-0.605
1378,-0.850,-0.610
1379,-0.850,-0.620
1380,-0.855,-0.625
1381,-0.870,-0.640
1382,-0.890,-0.650
1383,-0.885,-0.635
1384,-0.885,-0.620
1385,-0.890,-0.610
1386,-0.880,-0.620
1387,-0.880,-0.615
1388,-0.855,-0.605
1389,-0.855,-0.615
1390,-0.855,-0.625
1391,-0.870,-0.625
1392,-0.865,-0.635
1393,-0.875,-0.630
1394,-0.875,-0.645
1395,-0.870,-0.635
1396,-0.885,-0.630
1397,-0.885,-0.630
1398,-0.885,-0.620
1399,-0.880,-0.615
1400,-0.870,-0.615
1401,-0.860,-0.605
1402,-0.855,-0.610
1403,-0.850,-0.610
1404,-0.865,-0.615
1405,-0.875,-0.625
1406,-0.885,-0.635
1407,-0.890,-0.635
1408,-0.885,-0.640
1409,-0.870,-0.640
1410,-0.870,-0.620
1411,-0.855,-0.610
1412,-0.865,-0.605
1413,-0.850,-0.605
1414,-0.850,-0.610
1415,-0.845,-0.630
1416,-0.845,-0.645
1417,-0.855,-0.660
1418,-0.855,-0.660
1419,-0.870,-0.660
1420,-0.865,-0.640
1421,-0.865,-0.640
1422,-0.845,-0.635
1423,-0.845,-0.615
1424,-0.835,-0.610
1425,-0.820,-0.605
1426,-0.815,-0.610
1427,-0.820,-0.620
1428,-0.840,-0.635
1429,-0.835,-0.635
1430,-0.840,-0.650
1431,-0.835,-0.650
1432,-0.835,-0.640
1433,-0.830,-0.625
1434,-0.825,-0.595
1435,-0.820,-0.585
1436,-0.800,-0.590
1437,-0.800,-0.605
1438,-0.810,-0.630
1439,-0.810,-0.645
1440,-0.810,-0.655
1441,-0.815,-0.670
1442,-0.815,-0.665
1443,-0.830,-0.645
1444,-0.820,-0.635
1445,-0.830,-0.625
1446,-0.815,-0.625
1447,-0.810,-0.615
1448,-0.790,-0.600
1449,-0.780,-0.595
1450,-0.780,-0.605
1451,-0.790,-0.620
1452,-0.790,-0.625
1453,-0.805,-0.630
1454,-0.805,-0.640
1455,-0.810,-0.645
1456,-0.805,-0.645
1457,-0.815,-0.630
1458,-0.795,-0.615
1459,-0.785,-0.605
1460,-0.775,-0.595
1461,-0.770,-0.600
1462,-0.780,-0.610
1463,-0.775,-0.620
1464,-0.790,-0.635
1465,-0.790,-0.640
1466,-0.785,-0.635
1467,-0.800,-0.635
1468,-0.805,-0.630
1469,-0.810,-0.620
1470,-0.795,-0.615
1471,-0.785,-0.615
1472,-0.765,-0.605
1473,-0.770,-0.605
1474,-0.765,-0.610
1475,-0.780,-0.620
1476,-0.775,-0.620
1477,-0.785,-0.630
1478,-0.800,-0.640
1479,-0.800,-0.640
1480,-0.805,-0.645
1481,-0.785,-0.640
1482,-0.775,-0.630
1483,-0.765,-0.605
1484,-0.750,-0.595
1485,-0.745,-0.600
1486,-0.750,-0.595
1487,-0.750,-0.605
1488,-0.750,-0.635
1489,-0.755,-0.650
1490,-0.765,-0.655
1491,-0.775,-0.660
1492,-0.780,-0.645
1493,-0.770,-0.630
1494,-0.765,-0.625
1495,-0.760,-0.610
1496,-0.755,-0.600
1497,-0.735,-0.590
1498,-0.740,-0.605
1499,-0.740,-0.595
1500,-0.745,-0.600
1501,-0.745,-0.600
1502,-0.745,-0.625
1503,-0.760,-0.630
1504,-0.750,-0.640
1505,-0.755,-0.620
1506,-0.735,-0.610
1507,-0.720,-0.600
1508,-0.710,-0.590
1509,-0.695,-0.595
1510,-0.695,-0.605
1511,-0.705,-0.625
1512,-0.705,-0.640
1513,-0.720,-0.640
1514,-0.705,-0.660
1515,-0.705,-0.680
1516,-0.700,-0.685
1517,-0.695,-0.685
1518,-0.685,-0.685
1519,-0.675,-0.680
1520,-0.675,-0.675
1521,-0.670,-0.680
1522,-0.665,-0.680
1523,-0.685,-0.675
1524,-0.695,-0.675
1525,-0.695,-0.675
1526,-0.695,-0.665
1527,-0.685,-0.650
1528,-0.690,-0.645
1529,-0.680,-0.625
1530,-0.670,-0.615
1531,-0.675,-0.610
1532,-0.685,-0.600
1533,-0.680,-0.600
1534,-0.695,-0.595
1535,-0.715,-0.600
1536,-0.715,-0.615
1537,-0.730,-0.620
1538,-0.735,-0.625
1539,-0.740,-0.625
1540,-0.750,-0.620
1541,-0.745,-0.605
1542,-0.735,-0.600
1543,-0.730,-0.600
1544,-0.720,-0.590
1545,-0.715,-0.585
1546,-0.700,-0.585
1547,-0.715,-0.585
1548,-0.725,-0.595
1549,-0.715,-0.595
1550,-0.725,-0.595
1551,-0.730,-0.610
1552,-0.725,-0.605
1553,-0.720,-0.600
1554,-0.695,-0.620
1555,-0.680,-0.680
1556,-0.650,-0.785
1557,-0.585,-0.910
1558,-0.515,-1.055
1559,-0.415,-1.225
1560,-0.300,-1.400
1561,-0.170,-1.540
1562,-0.035,-1.630
1563,0.100,-1.645
1564,0.205,-1.590
1565,0.285,-1.490
1566,0.340,-1.365
1567,0.375,-1.225
1568,0.400,-1.095
1569,0.435,-0.975
1570,0.430,-0.875
1571,0.405,-0.820
1572,0.340,-0.750
1573,0.270,-0.695
1574,0.200,-0.660
1575,0.130,-0.645
1576,0.050,-0.625
1577,-0.035,-0.620
1578,-0.130,-0.610
1579,-0.220,-0.570
1580,-0.300,-0.545
1581,-0.385,-0.520
1582,-0.480,-0.515
1583,-0.555,-0.535
1584,-0.630,-0.585
1585,-0.670,-0.605
1586,-0.705,-0.620
1587,-0.710,-0.610
1588,-0.710,-0.580
1589,-0.695,-0.560
1590,-0.695,-0.540
1591,-0.675,-0.530
1592,-0.655,-0.530
1593,-0.650,-0.535
1594,-0.640,-0.540
1595,-0.655,-0.555
1596,-0.660,-0.555
1597,-0.670,-0.560
1598,-0.680,-0.570
1599,-0.680,-0.565
1600,-0.675,-0.540
1601,-0.680,-0.535
1602,-0.670,-0.530
1603,-0.665,-0.515
1604,-0.655,-0.525
1605,-0.645,-0.530
1606,-0.650,-0.550
1607,-0.660,-0.555
1608,-0.665,-0.570
1609,-0.665,-0.560
1610,-0.670,-0.575
1611,-0.665,-0.555
1612,-0.665,-0.545
1613,-0.665,-0.540
1614,-0.665,-0.540
1615,-0.655,-0.540
1616,-0.660,-0.550
1617,-0.660,-0.535
1618,-0.660,-0.560
1619,-0.650,-0.560
1620,-0.640,-0.560
1621,-0.645,-0.545
1622,-0.645,-0.535
1623,-0.645,-0.530
1624,-0.655,-0.540
1625,-0.650,-0.560
1626,-0.650,-0.585
1627,-0.650,-0.610
1628,-0.640,-0.590
1629,-0.640,-0.580
1630,-0.615,-0.570
1631,-0.615,-0.545
1632,-0.615,-0.555
1633,-0.630,-0.560
1634,-0.640,-0.570
1635,-0.650,-0.565
1636,-0.655,-0.565
1637,-0.650,-0.560
1638,-0.635,-0.545
1639,-0.630,-0.535
1640,-0.635,-0.520
1641,-0.620,-0.520
1642,-0.625,-0.545
1643,-0.620,-0.570
1644,-0.625,-0.580
1645,-0.630,-0.590
1646,-0.625,-0.590
1647,-0.635,-0.575
1648,-0.640,-0.565
1649,-0.640,-0.550
1650,-0.635,-0.545
1651,-0.615,-0.545
1652,-0.625,-0.540
1653,-0.610,-0.560
1654,-0.605,-0.560
1655,-0.610,-0.560
1656,-0.620,-0.590
1657,-0.630,-0.590
1658,-0.645,-0.595
1659,-0.635,-0.590
1660,-0.640,-0.585
1661,-0.640,-0.565
1662,-0.640,-0.545
1663,-0.630,-0.550
1664,-0.635,-0.545
1665,-0.615,-0.550
1666,-0.615,-0.550
1667,-0.620,-0.550
1668,-0.635,-0.565
1669,-0.640,-0.560
1670,-0.650,-0.565
1671,-0.665,-0.565
1672,-0.680,-0.555
1673,-0.685,-0.595
1674,-0.685,-0.625
1675,-0.680,-0.645
1676,-0.685,-0.630
1677,-0.685,-0.615
1678,-0.695,-0.605
1679,-0.705,-0.575
1680,-0.730,-0.575
1681,-0.760,-0.565
1682,-0.775,-0.580
1683,-0.790,-0.610
1684,-0.795,-0.615
1685,-0.815,-0.630
1686,-0.810,-0.630
1687,-0.800,-0.610
1688,-0.790,-0.600
1689,-0.780,-0.580
1690,-0.795,-0.565
1691,-0.805,-0.570
1692,-0.810,-0.595
1693,-0.830,-0.605
1694,-0.830,-0.610
1695,-0.835,-0.620
1696,-0.855,-0.600
1697,-0.850,-0.585
1698,-0.840,-0.580
1699,-0.835,-0.575
1700,-0.840,-0.580
1701,-0.850,-0.585
1702,-0.855,-0.600
1703,-0.850,-0.600
1704,-0.845,-0.625
1705,-0.845,-0.630
1706,-0.845,-0.630
1707,-0.865,-0.630
1708,-0.860,-0.615
1709,-0.860,-0.595
1710,-0.870,-0.585
1711,-0.855,-0.585
1712,-0.855,-0.570
1713,-0.835,-0.575
1714,-0.850,-0.555
1715,-0.850,-0.545
1716,-0.845,-0.540
1717,-0.870,-0.555
1718,-0.875,-0.560
1719,-0.885,-0.605
1720,-0.895,-0.630
1721,-0.880,-0.645
1722,-0.865,-0.640
1723,-0.865,-0.605
1724,-0.860,-0.580
1725,-0.845,-0.575
1726,-0.860,-0.590
1727,-0.870,-0.590
1728,-0.880,-0.600
1729,-0.880,-0.615
1730,-0.885,-0.615
1731,-0.900,-0.605
1732,-0.895,-0.615
1733,-0.885,-0.565
1734,-0.895,-0.545
1735,-0.895,-0.545
1736,-0.875,-0.555
1737,-0.880,-0.575
1738,-0.885,-0.580
1739,-0.895,-0.585
1740,-0.900,-0.580
1741,-0.905,-0.580
1742,-0.905,-0.595
1743,-0.910,-0.635
1744,-0.925,-0.640
1745,-0.930,-0.640
1746,-0.905,-0.630
1747,-0.910,-0.615
1748,-0.895,-0.580
1749,-0.900,-0.550
1750,-0.910,-0.555
1751,-0.915,-0.560
1752,-0.900,-0.575
1753,-0.910,-0.595
1754,-0.920,-0.625
1755,-0.950,-0.640
1756,-0.955,-0.630
1757,-0.940,-0.630
1758,-0.935,-0.610
1759,-0.925,-0.605
1760,-0.935,-0.590
1761,-0.915,-0.570
1762,-0.920,-0.580
1763,-0.915,-0.600
1764,-0.930,-0.605
1765,-0.935,-0.610
1766,-0.940,-0.605
1767,-0.945,-0.615
1768,-0.935,-0.615
1769,-0.940,-0.615
1770,-0.935,-0.615
1771,-0.935,-0.610
1772,-0.925,-0.600
1773,-0.910,-0.575
1774,-0.915,-0.580
1775,-0.935,-0.595
1776,-0.925,-0.605
1777,-0.915,-0.615
1778,-0.925,-0.620
1779,-0.925,-0.625
1780,-0.925,-0.615
1781,-0.930,-0.610
1782,-0.910,-0.605
1783,-0.920,-0.600
1784,-0.920,-0.600
1785,-0.910,-0.605
1786,-0.905,-0.615
1787,-0.910,-0.615
1788,-0.920,-0.625
1789,-0.920,-0.640
1790,-0.920,-0.625
1791,-0.930,-0.630
1792,-0.925,-0.630
1793,-0.925,-0.605
1794,-0.915,-0.605
1795,-0.910,-0.610
1796,-0.905,-0.610
1797,-0.895,-0.600
1798,-0.895,-0.590
1799,-0.910,-0.595
1800,-0.915,-0.595
1801,-0.930,-0.605
1802,-0.935,-0.625
1803,-0.935,-0.640
1804,-0.940,-0.645
1805,-0.930,-0.630
1806,-0.925,-0.615
1807,-0.910,-0.615
1808,-0.910,-0.580
1809,-0.890,-0.585
1810,-0.890,-0.590
1811,-0.905,-0.595
1812,-0.910,-0.620
1813,-0.905,-0.640
1814,-0.915,-0.645
1815,-0.920,-0.650
1816,-0.935,-0.640
1817,-0.940,-0.625
1818,-0.925,-0.605
1819,-0.910,-0.595
1820,-0.905,-0.595
1821,-0.895,-0.605
1822,-0.890,-0.630
1823,-0.895,-0.625
1824,-0.900,-0.630
1825,-0.895,-0.625
1826,-0.895,-0.620
1827,-0.900,-0.640
1828,-0.905,-0.645
1829,-0.905,-0.650
1830,-0.895,-0.625
1831,-0.890,-0.615
1832,-0.885,-0.600
1833,-0.890,-0.600
1834,-0.880,-0.610
1835,-0.895,-0.595
1836,-0.915,-0.615
1837,-0.905,-0.620
1838,-0.920,-0.625
1839,-0.920,-0.615
1840,-0.915,-0.630
1841,-0.915,-0.625
1842,-0.905,-0.610
1843,-0.900,-0.610
1844,-0.895,-0.600
1845,-0.885,-0.590
1846,-0.870,-0.600
1847,-0.880,-0.585
1848,-0.890,-0.590
1849,-0.885,-0.595
1850,-0.885,-0.610
1851,-0.895,-0.640
1852,-0.895,-0.645
1853,-0.900,-0.640
1854,-0.900,-0.630
1855,-0.895,-0.625
1856,-0.900,-0.600
1857,-0.880,-0.595
1858,-0.850,-0.580
1859,-0.845,-0.590
1860,-0.845,-0.595
1861,-0.845,-0.615
1862,-0.840,-0.610
1863,-0.845,-0.615
1864,-0.850,-0.630
1865,-0.850,-0.650
1866,-0.850,-0.675
1867,-0.835,-0.700
1868,-0.825,-0.685
1869,-0.805,-0.690
1870,-0.805,-0.665
1871,-0.810,-0.655
1872,-0.810,-0.665
1873,-0.825,-0.680
1874,-0.830,-0.680
1875,-0.840,-0.695
1876,-0.855,-0.680
1877,-0.855,-0.660
1878,-0.835,-0.645
1879,-0.835,-0.650
1880,-0.825,-0.645
1881,-0.800,-0.635
1882,-0.810,-0.635
1883,-0.815,-0.615
1884,-0.815,-0.620
1885,-0.830,-0.610
1886,-0.840,-0.605
1887,-0.835,-0.605
1888,-0.855,-0.625
1889,-0.875,-0.610
1890,-0.860,-0.630
1891,-0.885,-0.640
1892,-0.885,-0.625
1893,-0.875,-0.610
1894,-0.870,-0.600
1895,-0.860,-0.600
1896,-0.860,-0.595
1897,-0.865,-0.595
1898,-0.875,-0.590
1899,-0.870,-0.600
1900,-0.885,-0.595
1901,-0.885,-0.600
1902,-0.880,-0.605
1903,-0.865,-0.605
1904,-0.855,-0.590
1905,-0.835,-0.575
1906,-0.835,-0.575
1907,-0.830,-0.575
1908,-0.830,-0.595
1909,-0.820,-0.655
1910,-0.800,-0.760
1911,-0.770,-0.885
1912,-0.705,-1.050
1913,-0.620,-1.215
1914,-0.510,-1.370
1915,-0.365,-1.510
1916,-0.235,-1.585
1917,-0.105,-1.605
1918,0.015,-1.580
1919,0.100,-1.490
1920,0.155,-1.390
1921,0.205,-1.280
1922,0.215,-1.160
1923,0.240,-1.075
1924,0.245,-0.995
1925,0.245,-0.920
1926,0.220,-0.845
1927,0.175,-0.770
1928,0.125,-0.710
1929,0.075,-0.645
1930,0.020,-0.615
1931,-0.045,-0.595
1932,-0.130,-0.595
1933,-0.220,-0.590
1934,-0.300,-0.600
1935,-0.390,-0.590
1936,-0.485,-0.590
1937,-0.575,-0.590
1938,-0.645,-0.580
1939,-0.710,-0.580
1940,-0.755,-0.550
1941,-0.780,-0.550
1942,-0.805,-0.535
1943,-0.805,-0.535
1944,-0.815,-0.535
1945,-0.805,-0.545
1946,-0.820,-0.565
1947,-0.825,-0.565
1948,-0.825,-0.570
1949,-0.825,-0.565
1950,-0.820,-0.550
1951,-0.815,-0.540
1952,-0.805,-0.525
1953,-0.800,-0.515
1954,-0.805,-0.510
1955,-0.805,-0.510
1956,-0.805,-0.520
1957,-0.795,-0.520
1958,-0.810,-0.545
1959,-0.815,-0.560
1960,-0.805,-0.565
1961,-0.815,-0.575
1962,-0.795,-0.565
1963,-0.790,-0.550
1964,-0.785,-0.555
1965,-0.785,-0.545
1966,-0.775,-0.540
1967,-0.765,-0.545
1968,-0.765,-0.540
1969,-0.775,-0.545
1970,-0.780,-0.550
1971,-0.785,-0.555
1972,-0.785,-0.565
1973,-0.780,-0.550
1974,-0.785,-0.540
1975,-0.775,-0.530
1976,-0.775,-0.505
1977,-0.745,-0.500
1978,-0.740,-0.530
1979,-0.740,-0.555
1980,-0.745,-0.570
1981,-0.755,-0.575
1982,-0.770,-0.585
1983,-0.760,-0.560
1984,-0.755,-0.540
1985,-0.755,-0.530
1986,-0.750,-0.525
1987,-0.745,-0.540
1988,-0.740,-0.550
1989,-0.720,-0.555
1990,-0.720,-0.550
1991,-0.725,-0.550
1992,-0.740,-0.545
1993,-0.740,-0.545
1994,-0.735,-0.555
1995,-0.740,-0.570
1996,-0.735,-0.575
1997,-0.750,-0.580
1998,-0.735,-0.570
1999,-0.725,-0.545
2000,-0.710,-0.530
2001,-0.695,-0.520
2002,-0.685,-0.525
2003,-0.685,-0.530
2004,-0.705,-0.535
2005,-0.715,-0.540
2006,-0.720,-0.565
2007,-0.715,-0.570
2008,-0.710,-0.565
2009,-0.710,-0.550
2010,-0.700,-0.540
2011,-0.690,-0.525
2012,-0.680,-0.515
2013,-0.670,-0.510
2014,-0.670,-0.525
2015,-0.665,-0.530
2016,-0.680,-0.560
2017,-0.680,-0.570
2018,-0.685,-0.575
2019,-0.685,-0.585
2020,-0.685,-0.575
2021,-0.695,-0.570
2022,-0.690,-0.585
2023,-0.690,-0.585
2024,-0.695,-0.585
2025,-0.685,-0.565
2026,-0.680,-0.585
2027,-0.690,-0.575
2028,-0.695,-0.565
2029,-0.700,-0.560
2030,-0.720,-0.570
2031,-0.720,-0.580
2032,-0.740,-0.595
2033,-0.760,-0.590
2034,-0.755,-0.580
2035,-0.750,-0.575
2036,-0.755,-0.570
2037,-0.750,-0.565
2038,-0.765,-0.575
2039,-0.780,-0.590
2040,-0.790,-0.610
2041,-0.795,-0.610
2042,-0.805,-0.615
2043,-0.820,-0.610
2044,-0.825,-0.610
2045,-0.835,-0.590
2046,-0.835,-0.585
2047,-0.850,-0.580
2048,-0.845,-0.570
2049,-0.835,-0.570
2050,-0.840,-0.565
2051,-0.855,-0.575
2052,-0.865,-0.580
2053,-0.870,-0.590
2054,-0.875,-0.590
2055,-0.880,-0.590
2056,-0.895,-0.595
2057,-0.900,-0.580
2058,-0.895,-0.565
2059,-0.890,-0.565
2060,-0.885,-0.565
2061,-0.865,-0.570
2062,-0.860,-0.585
2063,-0.845,-0.590
2064,-0.850,-0.605
2065,-0.845,-0.600
2066,-0.875,-0.605
2067,-0.880,-0.595
2068,-0.875,-0.585
2069,-0.870,-0.580
2070,-0.865,-0.580
2071,-0.860,-0.575
2072,-0.850,-0.560
2073,-0.840,-0.580
2074,-0.845,-0.575
2075,-0.845,-0.590
2076,-0.850,-0.590
2077,-0.855,-0.605
2078,-0.860,-0.585
2079,-0.865,-0.595
2080,-0.875,-0.585
2081,-0.870,-0.575
2082,-0.875,-0.580
2083,-0.880,-0.570
2084,-0.870,-0.560
2085,-0.865,-0.560
2086,-0.860,-0.560
2087,-0.860,-0.550
2088,-0.860,-0.555
2089,-0.880,-0.570
2090,-0.880,-0.580
2091,-0.890,-0.600
2092,-0.895,-0.605
2093,-0.900,-0.605
2094,-0.890,-0.585
2095,-0.895,-0.565
2096,-0.885,-0.550
2097,-0.875,-0.550
2098,-0.885,-0.550
2099,-0.885,-0.560
2100,-0.895,-0.580
2101,-0.895,-0.600
2102,-0.900,-0.605
2103,-0.915,-0.600
2104,-0.915,-0.585
2105,-0.920,-0.570
2106,-0.920,-0.575
2107,-0.910,-0.570
2108,-0.900,-0.570
2109,-0.895,-0.555
2110,-0.875,-0.570
2111,-0.880,-0.575
2112,-0.880,-0.580
2113,-0.880,-0.575
2114,-0.880,-0.590
2115,-0.900,-0.600
2116,-0.915,-0.590
2117,-0.905,-0.590
2118,-0.900,-0.580
2119,-0.890,-0.580
2120,-0.890,-0.570
2121,-0.875,-0.570
2122,-0.875,-0.570
2123,-0.870,-0.570
2124,-0.870,-0.585
2125,-0.895,-0.590
2126,-0.890,-0.600
2127,-0.880,-0.610
2128,-0.895,-0.595
2129,-0.890,-0.585
2130,-0.885,-0.585
2131,-0.880,-0.570
2132,-0.880,-0.570
2133,-0.880,-0.565
2134,-0.870,-0.575
2135,-0.870,-0.580
2136,-0.865,-0.585
2137,-0.870,-0.590
2138,-0.865,-0.600
2139,-0.870,-0.600
2140,-0.875,-0.595
2141,-0.880,-0.600
2142,-0.865,-0.585
2143,-0.870,-0.575
2144,-0.850,-0.575
2145,-0.850,-0.560
2146,-0.850,-0.575
2147,-0.850,-0.580
2148,-0.850,-0.585
2149,-0.870,-0.600
2150,-0.875,-0.595
2151,-0.860,-0.600
2152,-0.875,-0.590
2153,-0.865,-0.590
2154,-0.855,-0.590
2155,-0.855,-0.575
2156,-0.845,-0.570
2157,-0.835,-0.585
2158,-0.830,-0.590
2159,-0.835,-0.580
2160,-0.845,-0.585
2161,-0.840,-0.585
2162,-0.850,-0.595
2163,-0.870,-0.595
2164,-0.865,-0.595
2165,-0.865,-0.595
2166,-0.845,-0.590
2167,-0.840,-0.570
2168,-0.840,-0.565
2169,-0.830,-0.570
2170,-0.820,-0.580
2171,-0.825,-0.575
2172,-0.830,-0.585
2173,-0.835,-0.600
2174,-0.860,-0.600
2175,-0.860,-0.605
2176,-0.855,-0.605
2177,-0.850,-0.590
2178,-0.835,-0.580
2179,-0.820,-0.580
2180,-0.815,-0.575
2181,-0.810,-0.580
2182,-0.820,-0.580
2183,-0.825,-0.575
2184,-0.820,-0.585
2185,-0.825,-0.590
2186,-0.820,-0.590
2187,-0.825,-0.605
2188,-0.840,-0.590
2189,-0.845,-0.585
2190,-0.845,-0.585
2191,-0.830,-0.570
2192,-0.835,-0.560
2193,-0.820,-0.555
2194,-0.820,-0.550
2195,-0.800,-0.555
2196,-0.810,-0.580
2197,-0.810,-0.585
2198,-0.820,-0.585
2199,-0.840,-0.600
2200,-0.835,-0.580
2201,-0.850,-0.570
2202,-0.830,-0.570
2203,-0.820,-0.565
2204,-0.810,-0.555
2205,-0.805,-0.545
2206,-0.825,-0.560
2207,-0.815,-0.570
2208,-0.825,-0.595
2209,-0.830,-0.580
2210,-0.825,-0.580
2211,-0.835,-0.570
2212,-0.840,-0.570
2213,-0.815,-0.565
2214,-0.810,-0.560
2215,-0.815,-0.565
2216,-0.805,-0.555
2217,-0.780,-0.545
2218,-0.765,-0.550
2219,-0.745,-0.545
2220,-0.735,-0.560
2221,-0.740,-0.575
2222,-0.755,-0.595
2223,-0.770,-0.615
2224,-0.775,-0.635
2225,-0.780,-0.650
2226,-0.770,-0.650
2227,-0.750,-0.650
2228,-0.735,-0.630
2229,-0.725,-0.620
2230,-0.720,-0.625
2231,-0.730,-0.620
2232,-0.725,-0.625
2233,-0.740,-0.625
2234,-0.745,-0.640
2235,-0.750,-0.640
2236,-0.760,-0.625
2237,-0.750,-0.600
2238,-0.740,-0.590
2239,-0.710,-0.580
2240,-0.700,-0.575
2241,-0.700,-0.580
2242,-0.700,-0.595
2243,-0.695,-0.595
2244,-0.695,-0.590
2245,-0.695,-0.590
2246,-0.725,-0.580
2247,-0.735,-0.585
2248,-0.735,-0.585
2249,-0.755,-0.580
2250,-0.745,-0.565
2251,-0.745,-0.575
2252,-0.745,-0.550
2253,-0.735,-0.555
2254,-0.730,-0.550
2255,-0.730,-0.565
2256,-0.725,-0.570
2257,-0.730,-0.575
2258,-0.735,-0.570
2259,-0.730,-0.575
2260,-0.740,-0.570
2261,-0.740,-0.580
2262,-0.730,-0.565
2263,-0.730,-0.545
2264,-0.720,-0.525
2265,-0.710,-0.520
2266,-0.690,-0.520
2267,-0.685,-0.535
2268,-0.670,-0.565
2269,-0.660,-0.650
2270,-0.640,-0.780
2271,-0.600,-0.945
2272,-0.515,-1.150
2273,-0.400,-1.340
2274,-0.245,-1.515
2275,-0.080,-1.615
2276,0.065,-1.640
2277,0.200,-1.580
2278,0.300,-1.455
2279,0.355,-1.300
2280,0.390,-1.155
2281,0.410,-1.030
2282,0.410,-0.925
2283,0.410,-0.860
2284,0.395,-0.780
2285,0.375,-0.715
2286,0.320,-0.640
2287,0.260,-0.590
2288,0.210,-0.550
2289,0.145,-0.520
2290,0.055,-0.515
2291,-0.060,-0.515
2292,-0.170,-0.515
2293,-0.295,-0.525
2294,-0.405,-0.540
2295,-0.500,-0.530
2296,-0.585,-0.520
2297,-0.615,-0.500
2298,-0.655,-0.475
2299,-0.655,-0.475
2300,-0.645,-0.475
2301,-0.635,-0.475
2302,-0.645,-0.490
2303,-0.645,-0.505
2304,-0.640,-0.515
2305,-0.640,-0.515
2306,-0.660,-0.505
2307,-0.665,-0.505
2308,-0.665,-0.510
2309,-0.655,-0.500
2310,-0.660,-0.485
2311,-0.660,-0.475
2312,-0.635,-0.460
2313,-0.620,-0.455
2314,-0.620,-0.455
2315,-0.620,-0.465
2316,-0.630,-0.475
2317,-0.630,-0.485
2318,-0.640,-0.485
2319,-0.660,-0.490
2320,-0.645,-0.495
2321,-0.645,-0.485
2322,-0.635,-0.480
2323,-0.635,-0.475
2324,-0.615,-0.460
2325,-0.600,-0.455
2326,-0.595,-0.460
2327,-0.605,-0.465
2328,-0.600,-0.470
2329,-0.600,-0.470
2330,-0.610,-0.475
2331,-0.620,-0.480
2332,-0.625,-0.470
2333,-0.625,-0.475
2334,-0.625,-0.465
2335,-0.610,-0.470
2336,-0.605,-0.465
2337,-0.585,-0.470
2338,-0.570,-0.475
2339,-0.560,-0.470
2340,-0.560,-0.485
2341,-0.555,-0.480
2342,-0.560,-0.475
2343,-0.575,-0.490
2344,-0.585,-0.480
2345,-0.570,-0.480
2346,-0.570,-0.475
2347,-0.560,-0.475
2348,-0.560,-0.475
2349,-0.555,-0.450
2350,-0.545,-0.455
2351,-0.550,-0.460
2352,-0.530,-0.465
2353,-0.535,-0.475
2354,-0.540,-0.475
2355,-0.535,-0.460
2356,-0.545,-0.465
2357,-0.545,-0.480
2358,-0.545,-0.475
2359,-0.540,-0.475
2360,-0.540,-0.470
2361,-0.530,-0.470
2362,-0.515,-0.465
2363,-0.520,-0.470
2364,-0.505,-0.465
2365,-0.505,-0.465
2366,-0.510,-0.470
2367,-0.515,-0.490
2368,-0.520,-0.485
2369,-0.520,-0.490
2370,-0.520,-0.485
2371,-0.510,-0.465
2372,-0.510,-0.475
2373,-0.500,-0.460
2374,-0.490,-0.465
2375,-0.485,-0.465
2376,-0.475,-0.460
2377,-0.490,-0.475
2378,-0.485,-0.485
2379,-0.500,-0.500
2380,-0.515,-0.520
2381,-0.525,-0.530
2382,-0.530,-0.540
2383,-0.520,-0.535
2384,-0.505,-0.515
2385,-0.495,-0.500
2386,-0.485,-0.505
2387,-0.495,-0.490
2388,-0.515,-0.490
2389,-0.535,-0.505
2390,-0.545,-0.515
2391,-0.550,-0.510
2392,-0.555,-0.505
2393,-0.550,-0.515
2394,-0.555,-0.535
2395,-0.555,-0.555
2396,-0.550,-0.565
2397,-0.550,-0.560
2398,-0.560,-0.550
2399,-0.560,-0.535
2400,-0.585,-0.510
2401,-0.605,-0.500
2402,-0.610,-0.510
2403,-0.620,-0.530
2404,-0.635,-0.520
2405,-0.640,-0.530
2406,-0.655,-0.515
2407,-0.645,-0.530
2408,-0.660,-0.550
2409,-0.660,-0.550
2410,-0.655,-0.580
2411,-0.650,-0.580
2412,-0.655,-0.570
2413,-0.660,-0.570
2414,-0.665,-0.560
2415,-0.685,-0.535
2416,-0.695,-0.530
2417,-0.690,-0.530
2418,-0.690,-0.500
2419,-0.675,-0.490
2420,-0.665,-0.500
2421,-0.660,-0.505
2422,-0.640,-0.545
2423,-0.650,-0.550
2424,-0.640,-0.550
2425,-0.650,-0.550
2426,-0.660,-0.520
2427,-0.670,-0.505
2428,-0.680,-0.490
2429,-0.670,-0.470
2430,-0.680,-0.485
2431,-0.670,-0.495
2432,-0.665,-0.520
2433,-0.660,-0.510
2434,-0.655,-0.530
2435,-0.655,-0.530
2436,-0.665,-0.565
2437,-0.665,-0.565
2438,-0.680,-0.585
2439,-0.690,-0.575
2440,-0.690,-0.575
2441,-0.685,-0.550
2442,-0.680,-0.525
2443,-0.660,-0.505
2444,-0.660,-0.500
2445,-0.665,-0.490
2446,-0.660,-0.525
2447,-0.665,-0.540
2448,-0.675,-0.545
2449,-0.675,-0.550
2450,-0.675,-0.545
2451,-0.690,-0.535
2452,-0.695,-0.540
2453,-0.700,-0.530
2454,-0.705,-0.520
2455,-0.725,-0.510
2456,-0.715,-0.500
2457,-0.705,-0.495
2458,-0.705,-0.510
2459,-0.700,-0.520
2460,-0.705,-0.520
2461,-0.720,-0.535
2462,-0.725,-0.540
2463,-0.725,-0.540
2464,-0.730,-0.540
2465,-0.720,-0.545
2466,-0.710,-0.530
2467,-0.720,-0.525
2468,-0.715,-0.515
2469,-0.705,-0.510
2470,-0.705,-0.510
2471,-0.705,-0.510
2472,-0.710,-0.520
2473,-0.715,-0.535
2474,-0.720,-0.530
2475,-0.715,-0.540
2476,-0.725,-0.545
2477,-0.735,-0.545
2478,-0.720,-0.525
2479,-0.720,-0.535
2480,-0.700,-0.520
2481,-0.695,-0.515
2482,-0.695,-0.525
2483,-0.695,-0.530
2484,-0.700,-0.525
2485,-0.710,-0.540
2486,-0.705,-0.550
2487,-0.720,-0.560
2488,-0.715,-0.555
2489,-0.715,-0.560
2490,-0.705,-0.550
2491,-0.690,-0.540
2492,-0.690,-0.530
2493,-0.685,-0.515
2494,-0.680,-0.540
2495,-0.695,-0.545
2496,-0.685,-0.550
2497,-0.685,-0.560
2498,-0.695,-0.560
2499,-0.695,-0.555
2500,-0.700,-0.555
2501,-0.690,-0.550
2502,-0.695,-0.540
2503,-0.695,-0.545
2504,-0.690,-0.540
2505,-0.680,-0.535
2506,-0.675,-0.545
2507,-0.675,-0.555
2508,-0.675,-0.560
2509,-0.680,-0.575
2510,-0.675,-0.570
2511,-0.680,-0.575
2512,-0.685,-0.570
2513,-0.685,-0.570
2514,-0.685,-0.550
2515,-0.680,-0.555
2516,-0.680,-0.555
2517,-0.670,-0.540
2518,-0.665,-0.545
2519,-0.670,-0.545
2520,-0.660,-0.550
2521,-0.665,-0.555
2522,-0.675,-0.560
2523,-0.680,-0.565
2524,-0.690,-0.570
2525,-0.690,-0.565
2526,-0.680,-0.550
2527,-0.665,-0.555
2528,-0.660,-0.550
2529,-0.665,-0.545
2530,-0.655,-0.545
2531,-0.665,-0.555
2532,-0.670,-0.555
2533,-0.675,-0.570
2534,-0.675,-0.575
2535,-0.705,-0.570
2536,-0.710,-0.565
2537,-0.695,-0.575
2538,-0.695,-0.570
2539,-0.695,-0.565
2540,-0.685,-0.550
2541,-0.665,-0.540
2542,-0.660,-0.540
2543,-0.665,-0.550
2544,-0.670,-0.550
2545,-0.695,-0.555
2546,-0.690,-0.570
2547,-0.690,-0.575
2548,-0.700,-0.575
2549,-0.690,-0.580
2550,-0.690,-0.565
2551,-0.680,-0.555
2552,-0.675,-0.555
2553,-0.680,-0.545
2554,-0.675,-0.550
2555,-0.670,-0.565
2556,-0.665,-0.565
2557,-0.670,-0.565
2558,-0.670,-0.570
2559,-0.695,-0.575
2560,-0.705,-0.580
2561,-0.700,-0.580
2562,-0.695,-0.570
2563,-0.690,-0.565
2564,-0.680,-0.560
2565,-0.675,-0.550
2566,-0.675,-0.545
2567,-0.670,-0.555
2568,-0.685,-0.565
2569,-0.680,-0.585
2570,-0.675,-0.575
2571,-0.685,-0.575
2572,-0.690,-0.570
2573,-0.685,-0.565
2574,-0.680,-0.550
2575,-0.680,-0.550
2576,-0.685,-0.540
2577,-0.660,-0.530
2578,-0.645,-0.540
2579,-0.645,-0.550
2580,-0.625,-0.545
2581,-0.620,-0.560
2582,-0.620,-0.565
2583,-0.630,-0.590
2584,-0.630,-0.595
2585,-0.635,-0.605
2586,-0.635,-0.625
2587,-0.635,-0.645
2588,-0.625,-0.635
2589,-0.615,-0.640
2590,-0.605,-0.640
2591,-0.610,-0.630
2592,-0.610,-0.630
2593,-0.620,-0.625
2594,-0.630,-0.630
2595,-0.630,-0.630
2596,-0.645,-0.635
2597,-0.640,-0.630
2598,-0.635,-0.615
2599,-0.620,-0.605
2600,-0.625,-0.590
2601,-0.600,-0.585
2602,-0.610,-0.575
2603,-0.605,-0.575
2604,-0.615,-0.570
2605,-0.630,-0.570
2606,-0.650,-0.575
2607,-0.660,-0.575
2608,-0.670,-0.575
2609,-0.670,-0.585
2610,-0.680,-0.575
2611,-0.685,-0.570
2612,-0.680,-0.560
2613,-0.675,-0.545
2614,-0.675,-0.555
2615,-0.675,-0.555
2616,-0.685,-0.560
2617,-0.705,-0.570
2618,-0.710,-0.570
2619,-0.715,-0.585
2620,-0.720,-0.585
2621,-0.705,-0.575
2622,-0.690,-0.560
2623,-0.680,-0.540
2624,-0.675,-0.525
2625,-0.650,-0.510
2626,-0.650,-0.500
2627,-0.655,-0.525
2628,-0.650,-0.570
2629,-0.645,-0.660
2630,-0.635,-0.785
2631,-0.595,-0.955
2632,-0.530,-1.145
2633,-0.435,-1.375
2634,-0.315,-1.575
2635,-0.170,-1.745
2636,-0.020,-1.820
2637,0.115,-1.765
2638,0.220,-1.610
2639,0.275,-1.405
2640,0.345,-1.200
2641,0.395,-1.025
2642,0.425,-0.900
2643,0.400,-0.790
2644,0.360,-0.710
2645,0.290,-0.640
2646,0.210,-0.585
2647,0.120,-0.550
2648,0.040,-0.535
2649,-0.055,-0.525
2650,-0.155,-0.535
2651,-0.260,-0.525
2652,-0.350,-0.520
2653,-0.450,-0.530
2654,-0.520,-0.515
2655,-0.570,-0.515
2656,-0.630,-0.525
2657,-0.665,-0.520
2658,-0.675,-0.500
2659,-0.670,-0.495
2660,-0.665,-0.485
2661,-0.670,-0.470
2662,-0.655,-0.475
2663,-0.650,-0.485
2664,-0.650,-0.470
2665,-0.640,-0.490
2666,-0.650,-0.495
2667,-0.660,-0.485
2668,-0.665,-0.495
2669,-0.655,-0.490
2670,-0.660,-0.480
2671,-0.645,-0.480
2672,-0.640,-0.460
2673,-0.630,-0.450
2674,-0.625,-0.455
2675,-0.620,-0.470
2676,-0.630,-0.465
2677,-0.645,-0.475
2678,-0.650,-0.480
2679,-0.655,-0.485
2680,-0.655,-0.490
2681,-0.650,-0.485
2682,-0.645,-0.470
2683,-0.640,-0.460
2684,-0.625,-0.455
2685,-0.625,-0.450
2686,-0.615,-0.455
2687,-0.615,-0.470
2688,-0.615,-0.465
2689,-0.620,-0.475
2690,-0.630,-0.480
2691,-0.625,-0.480
2692,-0.625,-0.475
2693,-0.635,-0.465
2694,-0.630,-0.465
2695,-0.625,-0.465
2696,-0.620,-0.455
2697,-0.620,-0.455
2698,-0.605,-0.470
2699,-0.610,-0.460
2700,-0.600,-0.470
2701,-0.620,-0.465
2702,-0.610,-0.475
2703,-0.610,-0.475
2704,-0.630,-0.475
2705,-0.625,-0.475
2706,-0.625,-0.480
2707,-0.615,-0.465
2708,-0.610,-0.455
2709,-0.595,-0.450
2710,-0.590,-0.455
2711,-0.580,-0.460
2712,-0.585,-0.470
2713,-0.590,-0.475
2714,-0.600,-0.475
2715,-0.600,-0.485
2716,-0.605,-0.480
2717,-0.590,-0.485
2718,-0.595,-0.480
2719,-0.585,-0.460
2720,-0.565,-0.475
2721,-0.565,-0.450
2722,-0.565,-0.455
2723,-0.560,-0.460
2724,-0.585,-0.470
2725,-0.585,-0.465
2726,-0.565,-0.485
2727,-0.570,-0.475
2728,-0.590,-0.485
2729,-0.580,-0.485
2730,-0.580,-0.465
2731,-0.575,-0.475
2732,-0.575,-0.475
2733,-0.570,-0.475
2734,-0.570,-0.470
2735,-0.555,-0.485
2736,-0.555,-0.495
2737,-0.550,-0.510
2738,-0.565,-0.515
2739,-0.575,-0.515
2740,-0.585,-0.510
2741,-0.595,-0.525
2742,-0.595,-0.510
2743,-0.590,-0.500
2744,-0.590,-0.500
2745,-0.585,-0.505
2746,-0.590,-0.515
2747,-0.600,-0.520
2748,-0.600,-0.535
2749,-0.615,-0.545
2750,-0.625,-0.555
2751,-0.640,-0.550
2752,-0.650,-0.555
2753,-0.670,-0.550
2754,-0.675,-0.540
2755,-0.670,-0.545
2756,-0.670,-0.555
2757,-0.665,-0.535
2758,-0.675,-0.535
2759,-0.675,-0.545
2760,-0.685,-0.545
2761,-0.705,-0.545
2762,-0.720,-0.575
2763,-0.735,-0.565
2764,-0.745,-0.570
2765,-0.745,-0.570
2766,-0.745,-0.560
2767,-0.745,-0.545
2768,-0.745,-0.545
2769,-0.735,-0.540
2770,-0.740,-0.555
2771,-0.750,-0.545
2772,-0.755,-0.560
2773,-0.760,-0.560
2774,-0.760,-0.560
2775,-0.775,-0.565
2776,-0.790,-0.565
2777,-0.775,-0.550
2778,-0.785,-0.550
2779,-0.780,-0.555
2780,-0.765,-0.530
2781,-0.770,-0.530
2782,-0.770,-0.525
2783,-0.765,-0.530
2784,-0.770,-0.540
2785,-0.775,-0.535
2786,-0.785,-0.545
2787,-0.790,-0.540
2788,-0.795,-0.560
2789,-0.805,-0.550
2790,-0.805,-0.540
2791,-0.795,-0.535
2792,-0.790,-0.510
2793,-0.785,-0.525
2794,-0.795,-0.520
2795,-0.795,-0.530
2796,-0.795,-0.530
2797,-0.795,-0.530
2798,-0.810,-0.535
2799,-0.825,-0.550
2800,-0.820,-0.540
2801,-0.835,-0.530
2802,-0.835,-0.520
2803,-0.830,-0.525
2804,-0.825,-0.515
2805,-0.815,-0.510
2806,-0.820,-0.515
2807,-0.825,-0.515
2808,-0.830,-0.530
2809,-0.830,-0.530
2810,-0.845,-0.540
2811,-0.845,-0.550
2812,-0.855,-0.535
2813,-0.855,-0.540
2814,-0.860,-0.535
2815,-0.850,-0.530
2816,-0.855,-0.520
2817,-0.850,-0.520
2818,-0.840,-0.535
2819,-0.850,-0.520
2820,-0.850,-0.540
2821,-0.850,-0.555
2822,-0.870,-0.550
2823,-0.880,-0.540
2824,-0.880,-0.560
2825,-0.890,-0.555
2826,-0.880,-0.555
2827,-0.870,-0.540
2828,-0.870,-0.545
2829,-0.860,-0.535
2830,-0.860,-0.535
2831,-0.865,-0.545
2832,-0.870,-0.560
2833,-0.865,-0.560
2834,-0.870,-0.575
2835,-0.875,-0.575
2836,-0.880,-0.570
2837,-0.875,-0.560
2838,-0.875,-0.560
2839,-0.890,-0.545
2840,-0.870,-0.540
2841,-0.865,-0.535
2842,-0.865,-0.535
2843,-0.855,-0.545
2844,-0.850,-0.560
2845,-0.870,-0.565
2846,-0.875,-0.570
2847,-0.875,-0.565
2848,-0.880,-0.570
2849,-0.880,-0.560
2850,-0.880,-0.550
2851,-0.875,-0.555
2852,-0.865,-0.540
2853,-0.860,-0.555
2854,-0.855,-0.560
2855,-0.855,-0.550
2856,-0.855,-0.565
2857,-0.845,-0.580
2858,-0.860,-0.565
2859,-0.870,-0.575
2860,-0.860,-0.580
2861,-0.870,-0.570
2862,-0.885,-0.570
2863,-0.865,-0.560
2864,-0.865,-0.550
2865,-0.850,-0.550
2866,-0.840,-0.550
2867,-0.835,-0.555
2868,-0.835,-0.560
2869,-0.850,-0.575
2870,-0.845,-0.565
2871,-0.860,-0.580
2872,-0.865,-0.575
2873,-0.865,-0.580
2874,-0.870,-0.575
2875,-0.865,-0.565
2876,-0.865,-0.570
2877,-0.845,-0.550
2878,-0.840,-0.545
2879,-0.835,-0.550
2880,-0.825,-0.550
2881,-0.840,-0.565
2882,-0.860,-0.580
2883,-0.870,-0.585
2884,-0.870,-0.575
2885,-0.870,-0.580
2886,-0.860,-0.575
2887,-0.855,-0.565
2888,-0.835,-0.555
2889,-0.825,-0.545
2890,-0.820,-0.550
2891,-0.825,-0.560
2892,-0.830,-0.560
2893,-0.830,-0.560
2894,-0.850,-0.575
2895,-0.860,-0.575
2896,-0.860,-0.580
2897,-0.860,-0.575
2898,-0.855,-0.570
2899,-0.845,-0.555
2900,-0.840,-0.560
2901,-0.840,-0.555
2902,-0.840,-0.550
2903,-0.835,-0.555
2904,-0.845,-0.565
2905,-0.840,-0.580
2906,-0.830,-0.585
2907,-0.855,-0.590
2908,-0.845,-0.580
2909,-0.830,-0.580
2910,-0.850,-0.565
2911,-0.835,-0.550
2912,-0.835,-0.560
2913,-0.830,-0.555
2914,-0.830,-0.560
2915,-0.835,-0.560
2916,-0.835,-0.570
2917,-0.840,-0.585
2918,-0.850,-0.590
2919,-0.850,-0.590
2920,-0.840,-0.590
2921,-0.850,-0.575
2922,-0.840,-0.580
2923,-0.835,-0.570
2924,-0.825,-0.560
2925,-0.825,-0.565
2926,-0.820,-0.565
2927,-0.820,-0.560
2928,-0.810,-0.575
2929,-0.820,-0.575
2930,-0.815,-0.590
2931,-0.825,-0.600
2932,-0.830,-0.595
2933,-0.830,-0.585
2934,-0.830,-0.580
2935,-0.825,-0.565
2936,-0.825,-0.565
2937,-0.815,-0.565
2938,-0.800,-0.560
2939,-0.800,-0.565
2940,-0.805,-0.575
2941,-0.810,-0.570
2942,-0.820,-0.585
2943,-0.820,-0.590
2944,-0.810,-0.575
2945,-0.820,-0.575
2946,-0.805,-0.565
2947,-0.800,-0.560
2948,-0.785,-0.555
2949,-0.765,-0.570
2950,-0.740,-0.580
2951,-0.750,-0.605
2952,-0.755,-0.625
2953,-0.765,-0.650
2954,-0.770,-0.670
2955,-0.775,-0.685
2956,-0.780,-0.695
2957,-0.785,-0.670
2958,-0.785,-0.665
2959,-0.780,-0.650
2960,-0.790,-0.645
2961,-0.775,-0.630
2962,-0.780,-0.625
2963,-0.765,-0.630
2964,-0.770,-0.630
2965,-0.760,-0.645
2966,-0.765,-0.635
2967,-0.775,-0.640
2968,-0.775,-0.640
2969,-0.775,-0.625
2970,-0.770,-0.615
2971,-0.770,-0.590
2972,-0.770,-0.575
2973,-0.770,-0.570
2974,-0.775,-0.560
2975,-0.790,-0.585
2976,-0.785,-0.585
2977,-0.810,-0.585
2978,-0.825,-0.600
2979,-0.830,-0.595
2980,-0.845,-0.605
2981,-0.840,-0.595
2982,-0.840,-0.585
2983,-0.830,-0.575
2984,-0.825,-0.575
2985,-0.815,-0.575
2986,-0.810,-0.580
2987,-0.815,-0.570
2988,-0.810,-0.575
2989,-0.835,-0.590
2990,-0.840,-0.580
2991,-0.845,-0.580
2992,-0.835,-0.590
2993,-0.835,-0.565
2994,-0.830,-0.560
2995,-0.825,-0.540
2996,-0.815,-0.540
2997,-0.800,-0.560
2998,-0.775,-0.625
2999,-0.765,-0.740
3000,-0.730,-0.905
3001,-0.680,-1.120
3002,-0.590,-1.365
3003,-0.485,-1.615
3004,-0.355,-1.830
3005,-0.235,-1.930
3006,-0.105,-1.880
3007,-0.005,-1.740
3008,0.065,-1.535
3009,0.115,-1.330
3010,0.160,-1.145
3011,0.190,-1.005
3012,0.210,-0.915
3013,0.205,-0.840
3014,0.150,-0.775
3015,0.100,-0.710
3016,0.015,-0.660
3017,-0.050,-0.610
3018,-0.130,-0.575
3019,-0.225,-0.560
3020,-0.320,-0.550
3021,-0.415,-0.540
3022,-0.500,-0.535
3023,-0.570,-0.530
3024,-0.635,-0.525
3025,-0.695,-0.525
3026,-0.740,-0.535
3027,-0.780,-0.530
3028,-0.810,-0.535
3029,-0.815,-0.520
3030,-0.820,-0.505
3031,-0.820,-0.495
3032,-0.810,-0.490
3033,-0.805,-0.480
3034,-0.790,-0.495
3035,-0.795,-0.490
3036,-0.795,-0.500
3037,-0.795,-0.495
3038,-0.810,-0.515
3039,-0.825,-0.515
3040,-0.815,-0.510
3041,-0.815,-0.520
3042,-0.805,-0.495
3043,-0.805,-0.485
3044,-0.810,-0.480
3045,-0.805,-0.480
3046,-0.790,-0.480
3047,-0.785,-0.490
3048,-0.795,-0.485
3049,-0.790,-0.490
3050,-0.800,-0.495
3051,-0.795,-0.495
3052,-0.800,-0.495
3053,-0.800,-0.500
3054,-0.790,-0.480
3055,-0.785,-0.480
3056,-0.775,-0.465
3057,-0.770,-0.465
3058,-0.760,-0.475
3059,-0.760,-0.480
3060,-0.755,-0.475
3061,-0.770,-0.485
3062,-0.770,-0.495
3063,-0.785,-0.500
3064,-0.780,-0.495
3065,-0.775,-0.500
3066,-0.780,-0.495
3067,-0.770,-0.490
3068,-0.765,-0.480
3069,-0.760,-0.470
3070,-0.745,-0.465
3071,-0.750,-0.485
3072,-0.755,-0.500
3073,-0.755,-0.495
3074,-0.760,-0.500
3075,-0.770,-0.510
3076,-0.770,-0.505
3077,-0.760,-0.505
3078,-0.775,-0.490
3079,-0.760,-0.485
3080,-0.765,-0.485
3081,-0.750,-0.465
3082,-0.750,-0.485
3083,-0.740,-0.485
3084,-0.745,-0.490
3085,-0.745,-0.495
3086,-0.755,-0.505
3087,-0.750,-0.515
3088,-0.750,-0.505
3089,-0.750,-0.505
3090,-0.745,-0.510
3091,-0.745,-0.495
3092,-0.735,-0.495
3093,-0.720,-0.485
3094,-0.720,-0.485
3095,-0.715,-0.485
3096,-0.705,-0.490
3097,-0.710,-0.500
3098,-0.705,-0.515
3099,-0.730,-0.515
3100,-0.735,-0.525
3101,-0.740,-0.515
3102,-0.730,-0.495
3103,-0.730,-0.495
3104,-0.735,-0.495
3105,-0.710,-0.480
3106,-0.695,-0.490
3107,-0.690,-0.510
3108,-0.695,-0.515
3109,-0.700,-0.520
3110,-0.710,-0.540
3111,-0.730,-0.545
3112,-0.740,-0.550
3113,-0.745,-0.550
3114,-0.735,-0.530
3115,-0.715,-0.535
3116,-0.725,-0.535
3117,-0.720,-0.535
3118,-0.720,-0.530
3119,-0.735,-0.560
3120,-0.745,-0.555
3121,-0.755,-0.560
3122,-0.760,-0.575
3123,-0.785,-0.580
3124,-0.775,-0.575
3125,-0.795,-0.575
3126,-0.800,-0.570
3127,-0.805,-0.560
3128,-0.815,-0.550
3129,-0.820,-0.545
3130,-0.805,-0.545
3131,-0.810,-0.565
3132,-0.820,-0.555
3133,-0.830,-0.570
3134,-0.840,-0.585
3135,-0.870,-0.575
3136,-0.875,-0.595
3137,-0.885,-0.580
3138,-0.880,-0.575
3139,-0.865,-0.560
3140,-0.875,-0.555
3141,-0.880,-0.545
3142,-0.870,-0.560
3143,-0.880,-0.565
3144,-0.890,-0.555
3145,-0.885,-0.560
3146,-0.900,-0.565
3147,-0.910,-0.565
3148,-0.930,-0.575
3149,-0.930,-0.565
3150,-0.925,-0.555
3151,-0.925,-0.560
3152,-0.915,-0.550
3153,-0.920,-0.545
3154,-0.915,-0.540
3155,-0.910,-0.535
3156,-0.930,-0.545
3157,-0.945,-0.545
3158,-0.940,-0.550
3159,-0.955,-0.565
3160,-0.960,-0.555
3161,-0.965,-0.555
3162,-0.960,-0.545
3163,-0.945,-0.535
3164,-0.945,-0.530
3165,-0.940,-0.520
3166,-0.935,-0.515
3167,-0.920,-0.525
3168,-0.930,-0.515
3169,-0.945,-0.540
3170,-0.950,-0.550
3171,-0.965,-0.545
3172,-0.960,-0.545
3173,-0.965,-0.540
3174,-0.965,-0.525
3175,-0.970,-0.525
3176,-0.960,-0.515
3177,-0.960,-0.515
3178,-0.955,-0.515
3179,-0.960,-0.530
3180,-0.970,-0.535
3181,-0.970,-0.530
3182,-0.985,-0.535
3183,-0.985,-0.545
3184,-0.995,-0.540
3185,-1.000,-0.535
3186,-1.005,-0.530
3187,-1.000,-0.535
3188,-0.990,-0.520
3189,-0.990,-0.515
3190,-0.980,-0.520
3191,-0.995,-0.525
3192,-1.000,-0.530
3193,-1.005,-0.530
3194,-1.005,-0.550
3195,-1.000,-0.560
3196,-1.005,-0.560
3197,-1.005,-0.555
3198,-1.005,-0.555
3199,-1.010,-0.545
3200,-1.010,-0.530
3201,-1.005,-0.525
3202,-0.990,-0.520
3203,-0.995,-0.540
3204,-0.990,-0.525
3205,-1.000,-0.540
3206,-1.000,-0.545
3207,-1.005,-0.560
3208,-1.015,-0.570
3209,-1.020,-0.565
3210,-1.025,-0.545
3211,-1.010,-0.545
3212,-1.020,-0.535
3213,-0.995,-0.535
3214,-0.995,-0.535
3215,-0.990,-0.545
3216,-1.000,-0.540
3217,-1.005,-0.545
3218,-1.005,-0.555
3219,-1.015,-0.560
3220,-1.010,-0.565
3221,-1.010,-0.560
3222,-1.010,-0.555
3223,-1.005,-0.550
3224,-1.000,-0.550
3225,-0.985,-0.535
3226,-0.975,-0.540
3227,-0.990,-0.540
3228,-0.985,-0.550
3229,-0.975,-0.560
3230,-0.995,-0.560
3231,-1.000,-0.575
3232,-1.005,-0.560
3233,-1.010,-0.570
3234,-1.010,-0.565
3235,-1.000,-0.550
3236,-1.005,-0.545
3237,-0.990,-0.540
3238,-0.985,-0.540
3239,-0.985,-0.540
3240,-0.980,-0.545
3241,-0.980,-0.555
3242,-0.995,-0.565
3243,-1.005,-0.565
3244,-1.010,-0.580
3245,-1.010,-0.570
3246,-1.020,-0.555
3247,-1.000,-0.555
3248,-0.995,-0.550
3249,-0.985,-0.535
3250,-0.975,-0.545
3251,-0.975,-0.545
3252,-0.985,-0.555
3253,-0.980,-0.550
3254,-0.995,-0.565
3255,-1.005,-0.575
3256,-1.020,-0.580
3257,-1.015,-0.565
3258,-1.010,-0.565
3259,-1.000,-0.565
3260,-0.985,-0.555
3261,-0.980,-0.550
3262,-0.970,-0.550
3263,-0.980,-0.550
3264,-0.965,-0.555
3265,-0.980,-0.565
3266,-0.980,-0.565
3267,-0.990,-0.575
3268,-0.990,-0.570
3269,-0.995,-0.575
3270,-0.995,-0.565
3271,-0.980,-0.560
3272,-0.985,-0.550
3273,-0.970,-0.550
3274,-0.965,-0.535
3275,-0.970,-0.545
3276,-0.975,-0.560
3277,-0.975,-0.560
3278,-1.000,-0.565
3279,-0.995,-0.580
3280,-1.000,-0.570
3281,-0.990,-0.565
3282,-0.990,-0.565
3283,-0.980,-0.555
3284,-0.985,-0.540
3285,-0.970,-0.545
3286,-0.970,-0.540
3287,-0.965,-0.545
3288,-0.965,-0.575
3289,-0.970,-0.570
3290,-0.985,-0.580
3291,-0.975,-0.580
3292,-0.985,-0.570
3293,-0.985,-0.570
3294,-0.985,-0.565
3295,-0.985,-0.550
3296,-0.970,-0.565
3297,-0.965,-0.540
3298,-0.955,-0.535
3299,-0.950,-0.545
3300,-0.955,-0.555
3301,-0.960,-0.575
3302,-0.980,-0.575
3303,-0.975,-0.575
3304,-0.970,-0.575
3305,-0.970,-0.565
3306,-0.975,-0.550
3307,-0.965,-0.555
3308,-0.965,-0.540
3309,-0.955,-0.560
3310,-0.955,-0.545
3311,-0.950,-0.550
3312,-0.945,-0.545
3313,-0.970,-0.555
3314,-0.955,-0.555
3315,-0.945,-0.555
3316,-0.945,-0.555
3317,-0.925,-0.555
3318,-0.925,-0.555
3319,-0.900,-0.555
3320,-0.905,-0.555
3321,-0.890,-0.555
3322,-0.890,-0.575
3323,-0.905,-0.625
3324,-0.910,-0.630
3325,-0.900,-0.655
3326,-0.895,-0.660
3327,-0.890,-0.645
3328,-0.900,-0.640
3329,-0.895,-0.630
3330,-0.905,-0.620
3331,-0.900,-0.610
3332,-0.895,-0.600
3333,-0.890,-0.600
3334,-0.890,-0.600
3335,-0.895,-0.595
3336,-0.895,-0.605
3337,-0.890,-0.590
3338,-0.905,-0.590
3339,-0.905,-0.580
3340,-0.920,-0.570
3341,-0.925,-0.550
3342,-0.930,-0.555
3343,-0.930,-0.545
3344,-0.930,-0.540
3345,-0.920,-0.540
3346,-0.915,-0.540
3347,-0.925,-0.550
3348,-0.925,-0.540
3349,-0.930,-0.550
3350,-0.945,-0.550
3351,-0.960,-0.550
3352,-0.960,-0.565
3353,-0.955,-0.565
3354,-0.960,-0.550
3355,-0.960,-0.545
3356,-0.965,-0.545
3357,-0.940,-0.540
3358,-0.925,-0.530
3359,-0.925,-0.525
3360,-0.920,-0.520
3361,-0.915,-0.525
3362,-0.920,-0.515
3363,-0.920,-0.525
3364,-0.920,-0.540
3365,-0.900,-0.590
3366,-0.890,-0.685
3367,-0.840,-0.810
3368,-0.780,-0.995
3369,-0.700,-1.205
3370,-0.590,-1.410
3371,-0.485,-1.600
3372,-0.360,-1.730
3373,-0.230,-1.790
3374,-0.150,-1.745
3375,-0.080,-1.655
3376,-0.040,-1.510
3377,-0.005,-1.350
3378,0.020,-1.200
3379,0.055,-1.060
3380,0.080,-0.965
3381,0.095,-0.880
3382,0.070,-0.785
3383,0.010,-0.725
3384,-0.060,-0.655
3385,-0.135,-0.610
3386,-0.220,-0.580
3387,-0.300,-0.565
3388,-0.390,-0.550
3389,-0.485,-0.550
3390,-0.570,-0.525
3391,-0.635,-0.495
3392,-0.690,-0.490
3393,-0.750,-0.470
3394,-0.805,-0.470
3395,-0.845,-0.470
3396,-0.880,-0.475
3397,-0.890,-0.485
3398,-0.895,-0.475
3399,-0.905,-0.505
3400,-0.895,-0.480
3401,-0.895,-0.480
3402,-0.900,-0.470
3403,-0.890,-0.465
3404,-0.885,-0.450
3405,-0.870,-0.455
3406,-0.865,-0.450
3407,-0.865,-0.465
3408,-0.865,-0.460
3409,-0.860,-0.465
3410,-0.875,-0.465
3411,-0.885,-0.475
3412,-0.885,-0.485
3413,-0.885,-0.480
3414,-0.890,-0.465
3415,-0.875,-0.460
3416,-0.860,-0.460
3417,-0.850,-0.450
3418,-0.840,-0.465
3419,-0.835,-0.445
3420,-0.830,-0.450
3421,-0.835,-0.455
3422,-0.840,-0.465
3423,-0.835,-0.475
3424,-0.845,-0.480
3425,-0.845,-0.485
3426,-0.840,-0.480
3427,-0.835,-0.470
3428,-0.825,-0.465
3429,-0.815,-0.455
3430,-0.800,-0.445
3431,-0.800,-0.465
3432,-0.810,-0.460
3433,-0.810,-0.480
3434,-0.815,-0.485
3435,-0.825,-0.490
3436,-0.820,-0.500
3437,-0.825,-0.495
3438,-0.815,-0.480
3439,-0.805,-0.465
3440,-0.805,-0.470
3441,-0.800,-0.450
3442,-0.785,-0.460
3443,-0.790,-0.455
3444,-0.790,-0.475
3445,-0.800,-0.485
3446,-0.800,-0.490
3447,-0.805,-0.480
3448,-0.805,-0.490
3449,-0.805,-0.475
3450,-0.810,-0.475
3451,-0.800,-0.465
3452,-0.800,-0.465
3453,-0.790,-0.465
3454,-0.775,-0.450
3455,-0.780,-0.470
3456,-0.780,-0.460
3457,-0.785,-0.485
3458,-0.785,-0.480
3459,-0.780,-0.490
3460,-0.785,-0.485
3461,-0.780,-0.485
3462,-0.780,-0.475
3463,-0.770,-0.470
3464,-0.775,-0.470
3465,-0.755,-0.465
3466,-0.745,-0.455
3467,-0.735,-0.455
3468,-0.735,-0.475
3469,-0.740,-0.490
3470,-0.745,-0.490
3471,-0.755,-0.495
3472,-0.750,-0.505
3473,-0.755,-0.505
3474,-0.760,-0.490
3475,-0.755,-0.490
3476,-0.750,-0.495
3477,-0.735,-0.485
3478,-0.730,-0.490
3479,-0.730,-0.495
3480,-0.735,-0.495
3481,-0.735,-0.505
3482,-0.755,-0.515
3483,-0.765,-0.530
3484,-0.780,-0.520
3485,-0.780,-0.520
3486,-0.780,-0.520
3487,-0.785,-0.505
3488,-0.780,-0.510
3489,-0.780,-0.495
3490,-0.775,-0.505
3491,-0.790,-0.505
3492,-0.800,-0.515
3493,-0.805,-0.515
3494,-0.825,-0.515
3495,-0.835,-0.525
3496,-0.855,-0.530
3497,-0.860,-0.520
3498,-0.865,-0.510
3499,-0.855,-0.510
3500,-0.870,-0.515
3501,-0.865,-0.500
3502,-0.870,-0.505
3503,-0.880,-0.510
3504,-0.900,-0.500
3505,-0.915,-0.530
3506,-0.915,-0.530
3507,-0.925,-0.530
3508,-0.935,-0.530
3509,-0.945,-0.535
3510,-0.950,-0.535
3511,-0.945,-0.525
3512,-0.940,-0.505
3513,-0.935,-0.510
3514,-0.935,-0.500
3515,-0.940,-0.510
3516,-0.940,-0.515
3517,-0.955,-0.520
3518,-0.960,-0.525
3519,-0.965,-0.540
3520,-0.985,-0.540
3521,-0.985,-0.520
3522,-0.985,-0.530
3523,-0.960,-0.520
3524,-0.955,-0.515
3525,-0.955,-0.495
3526,-0.955,-0.495
3527,-0.960,-0.495
3528,-0.965,-0.500
3529,-0.975,-0.515
3530,-0.980,-0.510
3531,-0.975,-0.525
3532,-0.990,-0.525
3533,-1.010,-0.505
3534,-1.010,-0.505
3535,-1.010,-0.490
3536,-1.005,-0.500
3537,-0.990,-0.490
3538,-0.985,-0.490
3539,-0.995,-0.495
3540,-0.985,-0.510
3541,-0.990,-0.510
3542,-1.005,-0.515
3543,-1.010,-0.515
3544,-1.015,-0.530
3545,-1.035,-0.520
3546,-1.025,-0.515
3547,-1.020,-0.500
3548,-1.030,-0.495
3549,-1.020,-0.485
3550,-1.010,-0.490
3551,-1.015,-0.495
3552,-1.010,-0.495
3553,-1.020,-0.500
3554,-1.035,-0.510
3555,-1.040,-0.520
3556,-1.045,-0.520
3557,-1.045,-0.520
3558,-1.065,-0.515
3559,-1.055,-0.500
3560,-1.045,-0.500
3561,-1.030,-0.495
3562,-1.025,-0.490
3563,-1.025,-0.510
3564,-1.020,-0.505
3565,-1.025,-0.515
3566,-1.030,-0.530
3567,-1.050,-0.535
3568,-1.050,-0.530
3569,-1.045,-0.530
3570,-1.045,-0.525
3571,-1.040,-0.515
3572,-1.040,-0.510
3573,-1.030,-0.495
3574,-1.020,-0.500
3575,-1.015,-0.510
3576,-1.020,-0.520
3577,-1.025,-0.525
3578,-1.030,-0.535
3579,-1.040,-0.550
3580,-1.050,-0.540
3581,-1.045,-0.550
3582,-1.050,-0.535
3583,-1.035,-0.525
3584,-1.020,-0.525
3585,-1.025,-0.510
3586,-1.010,-0.510
3587,-1.005,-0.525
3588,-1.005,-0.520
3589,-1.010,-0.535
3590,-1.015,-0.540
3591,-1.010,-0.545
3592,-1.025,-0.555
3593,-1.025,-0.545
3594,-1.025,-0.535
3595,-1.015,-0.535
3596,-1.020,-0.515
3597,-1.005,-0.525
3598,-1.000,-0.520
3599,-1.000,-0.525
